
Integration time [ms]: 200.000
Averaging Nr. [scans]: 10
Smoothing Nr. [pixels]: 0
Data measured with spectrometer [name]: 2101013U2
Wave   ;Sample   ;Dark     ;Reference
[nm]   ;[counts] ;[counts] ;[counts] 

394.013;   86.177; -450.257; -315.536
394.305;  338.673; -461.258; -419.536
394.596; 1911.708; -676.269; -527.514
394.887; 4553.135; -796.268; -654.518
395.178; 1820.384;  145.736;   11.476
395.470;  145.702; -210.263; -356.526
395.761;  367.458;  305.734;  394.479
396.052;  553.507; -545.284; -306.489
396.343;  524.919; -557.276; -454.503
396.634;  159.969; -200.279; -290.497
396.926;  110.730; -618.268; -565.517
397.217;  157.626;   11.725;  -17.504
397.508;   57.152; -366.273; -154.507
397.799;   -1.131; -555.279; -571.497
398.090;  -53.740; -973.280; -902.495
398.381;  169.586;   11.708;  -11.473
398.672;  -53.212; -585.292; -742.473
398.963;   64.778; -348.279; -373.498
399.254;  178.302;   54.709; -209.475
399.545; -100.847;-1017.266; -883.520
399.836;   52.401; -407.277; -343.501
400.127;   80.948; -205.295; -209.468
400.418;  121.743; -423.274; -392.506
400.709;   38.639; -359.281; -333.493
401.000;   68.309; -268.291; -309.476
401.290;  198.446;  225.698;  115.545
401.581;  102.679; -166.286; -228.485
401.872;   33.303; -542.298; -486.462
402.163;   93.036; -313.296; -252.467
402.454;  162.304; -123.291; -163.475
402.744;   67.722; -844.297; -813.465
403.035;  549.972; -226.293;  -86.471
403.326;  761.393; -366.292; -384.474
403.617;  583.894;  204.701;  165.539
403.907;  372.816; -593.283; -679.490
404.198; 4125.772; -545.307; -599.446
404.489;10451.024; -618.283; -588.491
404.779; 3426.652; -618.302; -660.456
405.070;  377.317;  -67.304; -174.451
405.360;  540.175; -259.293; -238.472
405.651;  617.770;  125.699;   98.542
405.942;  341.971;  209.714;  127.516
406.232;  367.295; -432.285; -413.487
406.523;  733.364;  641.706;  758.530
406.813;  141.375; -579.286; -644.484
407.104;  546.384;  261.708;  144.527
407.394;  221.396; -604.299; -591.462
407.685;  246.693;  336.715;  222.513
407.975;   76.221; -400.283; -382.490
408.265;  198.427; -134.289; -190.478
408.556;   91.699; -472.291; -459.475
408.846;  309.965;  474.706;  429.530
409.137;  154.640;   -1.288; -216.480
409.427;  103.294; -193.285; -271.487
409.717;   42.957; -776.273; -692.508
410.007;  235.784;    4.715; -170.486
410.298;  116.852; -360.295; -342.469
410.588;   77.990; -495.285; -510.486
410.878;   24.958; -792.287; -873.482
411.168;  181.307; -481.298; -478.463
411.459;  209.813; -295.283; -242.489
411.749;   40.796; -609.292; -507.474
412.039;   29.538; -755.289; -386.480
412.329;  355.490;   40.722;  132.501
412.619;  294.075;  -62.286; -148.485
412.909;  588.631;  639.711;  594.521
413.199;  541.360; -130.280; -251.495
413.490;  673.916;  521.710;  352.523
413.780;  220.666;-1013.279; -913.496
414.070;  561.420;  -46.276;  235.497
414.360;  552.284; -729.278; -666.498
414.650;  627.852; -726.288; -688.482
414.940;  837.265; -538.280; -441.496
415.230; 1533.047;   50.712;   74.519
415.520;10462.507;  155.730;   66.486
415.809;39646.338; -305.281; -125.493
416.099;31706.905; -388.277; -229.501
416.389; 8778.439;  435.726;  236.494
416.679; 5330.107;   91.738;   85.473
416.969;  874.365; -527.287; -503.483
417.259;  971.769;  341.721;  171.503
417.549; 1179.136;  522.718;  318.508
417.838; 2833.534; -205.268; -147.518
418.128; 9264.625;  650.710;  492.522
418.418; 7788.167; -491.272; -579.509
418.708; 5363.139;    9.726;  -48.506
418.997;19785.833; -474.275; -480.505
419.287;20764.650; -733.273; -790.507
419.577;20192.812; -160.283; -123.489
419.866;62209.802; -588.277; -498.501
420.156;62659.000; -242.270;  -55.513
420.446;12059.695; -112.263;  -26.526
420.735; 1323.690; -376.271; -446.512
421.025; 1527.382; 1830.722;  315.502
421.314; 1062.187; -203.271; -226.512
421.604; 1866.522;   89.732;  233.484
421.893; 1053.281; -705.271; -602.511
422.183;  401.596; -487.263; -461.526
422.472;  651.584;  -36.271; -107.511
422.762;  705.463; -416.266; -379.521
423.051;  352.121; -916.276; -916.503
423.341;  489.753; -491.273; -439.507
423.630;  655.572; -121.265;   15.477
423.919;  633.032;   58.725;   49.495
424.209;  634.105;  -31.263;   56.473
424.498;  810.830;   68.732;  161.483
424.787; 1760.040; -535.267; -601.518
425.077; 5394.770;   34.735;   29.478
425.366; 7259.613; -734.262; -744.528
425.655;16844.854;  639.727;  259.493
425.945;36788.421; -313.247; -268.554
426.234;21233.750;  117.741;  300.467
426.523; 8460.558;  -86.259; -350.534
426.812;11706.056;  107.734;  159.480
427.101;17302.916; -127.269; -323.515
427.390;21276.506;  -55.270;  -86.514
427.680; 4546.890; -624.257; -411.538
427.969;  772.207; -330.255; -301.540
428.258;  504.876; -385.257; -477.536
428.547;  880.674;  449.728;  397.490
428.836; 1736.633; -421.253; -398.543
429.125; 2502.461; -199.259;  -72.534
429.414; 1236.470; -330.251; -294.548
429.703; 5495.270; -231.251; -213.548
429.992;15393.475; -938.250; -828.549
430.281;10523.784; -397.264; -331.524
430.570;  979.554;  -21.252;   32.454
430.859;  898.857;  279.741;  352.466
431.148;  765.914;  636.752;  631.446
431.437;  503.554;  391.748;  367.454
431.725;  243.579; -544.257; -481.536
432.014;  217.145; -845.253; -756.545
432.303;  606.335; -149.239; -105.569
432.592;  872.795; -460.263; -178.525
432.881; 1670.116; -601.248; -437.554
433.169;10755.309; -343.255;  -61.540
433.458;20962.090;  445.765;  540.424
433.747; 9024.822; -397.261; -289.529
434.036; 1419.997; -275.242; -280.564
434.324; 3463.995; -395.249; -379.551
434.613; 6047.686;   40.757;  159.437
434.902; 2120.820;  333.760;  439.433
435.190;  783.334;   75.761;  295.431
435.479;  441.757;  -52.245;   83.441
435.767;  133.570; -411.244; -427.561
436.056;  371.390; -340.242; -294.563
436.345;  587.423; -372.240; -223.568
436.633;  666.988;   60.750;  383.450
436.922;  398.627;  208.760;  414.432
437.210;  765.174; -194.236;    1.426
437.499; 2280.887; -583.235; -432.576
437.787; 2526.673; -339.236;  -10.574
438.075;  750.643;   56.761;  162.430
438.364;  956.147;  -44.238;  250.429
438.652;  584.115; -286.226; -138.592
438.941;  232.657;    3.770;  269.415
439.229;   -9.550; -665.252; -466.545
439.517;   62.700; -160.234;  -85.577
439.806;  -47.160; -501.225; -290.595
440.094;  339.013;  377.766;  650.421
440.382;  232.519; -653.233; -302.580
440.670;  260.986; -361.235; -285.576
440.959;   17.368; -347.223; -170.599
441.247;  111.975; -151.229; -109.587
441.535;  134.798; -266.235;   31.423
441.823;   25.608; -497.234; -305.578
442.111;  292.882;  173.771;  327.412
442.400;  679.656; -628.245; -335.559
442.688; 1719.812; -111.234; -620.579
442.976; 1163.909; -786.213; -450.617
443.264;  120.751; -324.224; -364.597
443.552;  136.317; -258.226;   51.408
443.840;  311.895;  602.765;  876.423
444.128;  182.317;  265.767;  269.420
444.416;  -29.214; -694.228; -312.588
444.704;   38.416; -465.219;  -92.605
444.992;  125.221;   -0.226;  240.407
445.280;   53.858; -517.230;  -94.585
445.568;   54.615; -694.212; -396.618
445.856;  484.190; -174.221;  357.398
446.143;  946.310;  -54.220;   -7.604
446.431;  889.492;  -25.228;  625.411
446.719;  400.846;  489.783;  675.391
447.007;  301.449;  481.769;  705.416
447.295;  355.563;  597.777;  871.402
447.583;  120.172; -464.229;  -34.587
447.870;  250.185; -434.221; -202.601
448.158;  574.756; -104.230;  129.415
448.446;  370.111; -800.219; -338.604
448.733;  254.453;   13.776;  269.403
449.021;  386.114;   60.788;  341.382
449.309;  274.238; -296.210;  208.379
449.596;  383.640;  128.783;   59.392
449.884;  239.674; -571.222; -325.600
450.172;  204.001; -756.227; -406.590
450.459;  797.482;  645.786;  780.387
450.747; 4345.738; -411.218; -147.608
451.034;13071.094;  493.772;  889.411
451.322;10989.887; -413.214; -170.614
451.609;  966.755;  292.777;  508.403
451.897;  993.339; -550.203; -183.634
452.184; 2972.164; -622.223; -400.598
452.472; 2913.672;   97.792;  269.375
452.759;  626.212;  512.781;  864.395
453.047;  144.110; -407.212; -125.617
453.334;  107.625; -732.219; -216.606
453.621;   74.891; -438.214; -161.615
453.909;  244.026;   13.796;  384.368
454.196;  139.299; -299.199; -123.641
454.483;  384.660;  317.798;  540.364
454.771;  216.977; -215.208;  196.374
455.058;   69.582; -316.207;  102.374
455.345;  214.887;   71.807;  344.347
455.632;  140.088; -128.207;  235.373
455.919;   72.635;  -82.196;  182.354
456.207; -133.494; -774.198; -450.642
456.494;  -49.721; -475.200;  -66.639
456.781;    6.553; -399.202; -198.635
457.068;  108.598; -253.206;  -29.628
457.355;  -16.400; -698.206; -401.629
457.642;  -30.191; -552.205; -290.630
457.929;  -15.427; -778.194; -417.651
458.216;   89.010; -575.212; -354.617
458.503;  418.681; -173.193;  -19.652
458.790;  367.474; -864.208; -630.625
459.077;  459.861;  -77.202;  110.364
459.364; 1370.562; -350.195; -210.649
459.651; 2833.195;  -46.206;  220.372
459.938; 1350.758; -864.209; -665.623
460.225;  226.166;  132.799;  276.363
460.512;  -95.869; -836.197; -688.645
460.799;  177.136;  -32.218;  320.392
461.086;   97.487; -370.200; -251.640
461.372;   22.007; -509.198; -279.642
461.659;  173.837; -165.196;  108.354
461.946;   67.378; -445.193;  -54.651
462.233;  420.383;  842.800;  888.361
462.519;  594.278; -814.201; -464.639
462.806; 1652.431; -768.197; -497.645
463.093; 1494.112; -445.191;  -66.656
463.380;  -49.522; -920.186; -824.664
463.666;   83.034; -259.197;  -18.646
463.953;  176.254; -406.195; -243.648
464.239;  323.453; -173.195;  -77.648
464.526;  670.271;  413.806;  743.350
464.813;  489.830; -565.190; -304.658
465.099;  630.080;  606.807;  607.348
465.386;  551.786;  903.807;  921.348
465.672;    7.032; -694.197; -522.645
465.959;   26.659; -598.188; -520.662
466.245;    6.586; -468.193; -359.652
466.532;  132.350; -109.195;   63.352
466.818;  112.677; -357.186; -216.664
467.104;  -26.058; -488.182; -415.672
467.391;  -62.067; -628.189; -459.658
467.677;   70.483; -289.186;    9.335
467.964;   -7.556; -682.189; -471.660
468.250;  120.987; -331.186; -160.665
468.536;  172.635;   90.811;  180.341
468.822;  -74.894; -821.184; -574.668
469.109;  298.971;  351.827;  471.311
469.395;  355.702;  729.808;  787.346
469.681;  352.840;   46.811;  156.341
469.967; 2198.747; -699.188; -382.660
470.254; 4388.460; -494.188; -306.662
470.540; 2921.535; -601.196; -476.646
470.826;  425.560; -488.181; -397.675
471.112;  543.112;  288.816;  113.331
471.398;  186.720; -253.183;  -58.670
471.684;   42.805; -626.177; -447.680
471.970;  -22.734; -918.180; -981.675
472.256;   53.000; -521.192; -441.654
472.542;   35.889; -499.171; -434.691
472.828;  -23.465; -743.182; -607.672
473.114;   64.959; -380.166; -283.700
473.400;   15.131; -504.175; -293.684
473.686;   59.469; -452.166; -400.701
473.972;   72.955; -230.174; -131.687
474.258;  -79.929; -925.173; -843.689
474.544;  362.692; -183.178;   -2.679
474.830;  564.434;  -65.175;   45.316
475.116;  908.133; -123.190; -196.658
475.401; 1129.969; -558.180; -467.676
475.687;  335.568; -725.180; -718.676
475.973;  -27.852; -673.181; -770.673
476.259;  472.938;  736.825;  764.315
476.544;  665.518; -539.176; -437.682
476.830; 1471.382; -398.172; -322.690
477.116; 1330.516; -430.177; -336.682
477.401;  287.469;  346.820;  358.324
477.687;  -21.968; -289.175; -405.684
477.973;   85.854;   21.819;   28.326
478.258;   -1.499; -448.163; -348.706
478.544;   81.396;   21.815;   61.334
478.829; -115.702; -818.171; -738.692
479.115;  -94.918; -749.172; -651.690
479.401;    3.248; -444.174; -449.686
479.686;   91.767; -253.180;  -74.676
479.972;  -65.700; -886.178; -776.680
480.257;   65.361; -258.166;  -65.700
480.542;   27.204; -614.170; -469.693
480.828;  506.929; 1288.824; 1392.317
481.113;  -57.475; -464.176; -426.683
481.399;    7.240; -236.161; -202.711
481.684;  -66.340; -620.166; -462.700
481.969;   41.761; -158.159;  -73.713
482.255;  -20.779; -439.169; -285.695
482.540;   17.600; -569.178; -441.680
482.825;   23.570; -395.187; -404.663
483.110;  167.126;  -85.169; -105.696
483.396;  355.096; -840.157; -652.718
483.681;  910.755;  543.826;  730.313
483.966;  287.152; -696.160; -700.712
484.251;  -15.647; -404.174; -310.687
484.536;   24.177; -356.165; -378.703
484.822;   35.258; -205.173; -218.687
485.107;  -34.343; -599.152; -502.726
485.392;  297.986;  662.836;  541.296
485.677;  141.842;  354.832;  163.302
485.962;  191.792;  160.843;  270.283
486.247;  200.314;  -14.162;   -8.707
486.532;   69.663; -178.166; -325.701
486.817;  309.931;  381.839;  431.291
487.102;  212.430; -453.154; -514.722
487.387; 1230.599; -637.156; -652.718
487.672; 2085.395; -154.164;  -38.705
487.957; 1354.242; -394.160; -286.711
488.241;  374.484; -290.150; -314.729
488.526; 1394.459; -280.152; -148.726
488.811; 2038.003; -881.177; -818.680
489.096; 1612.934; -666.154; -702.723
489.381;  932.153;    3.847;  162.275
489.666;  629.039; -428.161; -510.710
489.950;  395.639;  558.846;  627.277
490.235;  -47.124; -480.151; -458.728
490.520;  -92.962; -756.161; -723.710
490.804; -118.998; -827.156; -736.719
491.089;   34.809; -469.149; -299.732
491.374;   68.792; -132.164;  -75.704
491.658;  -14.473; -817.147; -717.735
491.943;  255.466; -657.152; -609.727
492.227;  352.623; -178.155;  -38.721
492.512;  113.391; -294.157; -341.717
492.797; -123.301; -713.149; -716.731
493.081;  -92.368; -588.147; -598.735
493.366;  -80.260; -751.161; -635.711
493.650;  430.317;  831.859;  917.254
493.935;   48.626; -648.147; -447.734
494.219;  -71.803; -778.142; -687.743
494.503;  -74.109; -585.150; -487.730
494.788;  109.578;   46.842;   74.285
495.072;  233.286;  184.850;  434.271
495.356;  298.914; -463.148; -343.733
495.641;  728.842; -812.146; -736.736
495.925;  638.910; -976.156; -903.719
496.209;   63.208; -599.149; -451.732
496.494;  -82.603; -763.142; -544.744
496.778;   17.830; -364.154; -360.722
497.062;  -97.891; -819.156; -627.719
497.346;  -74.555; -869.160; -640.711
497.631;  306.620;  580.852;  560.266
497.915;  140.159;  -64.145;  175.261
498.199;   74.396; -341.157; -277.718
498.483;   25.956; -562.152; -508.725
498.767;  375.188;  301.850;  300.271
499.051;  339.704; -126.149; -100.732
499.335;   37.701; -693.149; -739.731
499.619;  -49.621; -381.129; -423.767
499.903;   63.021; -272.155;  -65.721
500.187;   18.441; -588.153; -316.724
500.471;    8.765; -796.152; -595.727
500.755;  183.238;   62.839;  -96.710
501.039;   23.022; -270.155; -357.721
501.323;  148.220;  -21.141;  264.254
501.607;   67.602; -447.163; -503.706
501.891;    1.098; -607.156; -512.718
502.174;  -72.623; -726.144; -585.741
502.458;  151.371;   89.849;  370.273
502.742;   80.658; -180.138; -191.751
503.026;  194.626; -412.147; -254.734
503.310;  258.459; -437.159; -375.713
503.593;  227.628; -464.147; -325.735
503.877;  232.723; -232.133; -156.760
504.161;  275.745;    2.847;  -50.724
504.444;  204.181; -841.158; -710.716
504.728;  827.491; -487.164; -522.704
505.012; 1259.083; -257.150;  -76.729
505.295;  970.340; -417.161; -212.711
505.579;  958.209; -256.156; -496.719
505.862; 1396.653; -555.145; -333.738
506.146; 1305.863; -681.159; -758.714
506.429;  809.564;  568.841;  461.286
506.713;  140.678; -732.151; -667.728
506.996;  610.129;   90.846;  295.278
507.280;  598.183; -633.165; -474.703
507.563;  459.119; -469.155; -261.721
507.847;  162.343; -423.153; -112.724
508.130;  163.641; -665.161; -456.711
508.413;  196.954; -758.167; -577.700
508.697;  471.454; -151.167;   12.300
508.980;  291.045; -422.153; -312.724
509.263;  -11.287; -466.155; -450.720
509.547;   80.782; -124.150;   82.271
509.830;  108.844; -172.160;  140.289
510.113;  162.209;  128.844;  298.281
510.396;   81.054; -530.152; -300.725
510.680;  170.956; -818.145; -812.738
510.963;  828.636;  184.846;  180.277
511.246;  650.695; -493.150; -357.730
511.529;  458.363; -482.145;  -83.739
511.812;  710.017; -250.134;   10.241
512.095;  525.373; -740.151; -396.728
512.378;  156.135; -317.147; -245.736
512.661;   70.070; -703.137; -623.753
512.944;   43.000; -750.142; -637.744
513.227;  120.866; -170.137; -171.752
513.510;   28.977; -479.144; -671.741
513.793;   13.727; -485.140; -435.747
514.076;  243.312;  -43.127;  -39.771
514.359;  202.109; -294.149; -135.732
514.642;  151.305; -442.142; -567.744
514.925; 1477.324;  581.860;  561.253
515.208; 1728.511; -498.134; -443.758
515.491; 1217.533; -276.133; -182.761
515.773;  735.983; -410.143; -337.742
516.056; 3979.380;  249.864;  409.246
516.339; 4716.287; -754.136; -652.755
516.622; 3128.591; -518.150; -488.730
516.904; 1811.594;  882.857;  975.257
517.187;  738.064; -730.138; -523.752
517.470;  682.692; -568.143; -510.743
517.752;  730.691; -624.136; -470.756
518.035;  604.444; -708.139; -725.749
518.318;  758.987; -799.136; -744.755
518.600; 4615.839; -300.132; -325.762
518.883; 5907.304;  310.858;   88.256
519.165; 3047.652; -585.138; -426.751
519.448;  664.539;  -61.132;  -19.762
519.730;  314.925; -573.126; -415.773
520.013;  579.827;  588.867;  664.240
520.295; 1214.520;  -94.134;  -15.759
520.578; 2462.760; -335.131; -305.764
520.860; 2762.039; -254.132;   56.238
521.143; 1569.495; -763.135; -584.756
521.425;  817.545; -251.125; -279.775
521.707; 1265.713; -622.127; -380.771
521.990; 3267.214; -199.127;  167.229
522.272; 3521.329; -116.140;   -4.748
522.554; 1579.084; -237.143; -157.742
522.836;  517.216;  -24.134;   99.241
523.119;  360.724; -496.148; -189.734
523.401;  264.571; -448.130; -314.766
523.683;  165.171; -865.137; -693.753
523.965;  528.060;  408.862;  260.248
524.247;  519.979;   54.878;  170.220
524.529;  363.320; -451.134; -367.759
524.812;  649.974;   -3.130;  191.234
525.094; 1602.159; -773.138; -631.751
525.376; 2430.260; -143.124;   78.223
525.658; 1534.782; -441.136; -339.754
525.940;   67.254; -805.131; -671.764
526.222;   80.388; -188.136;  -88.755
526.504;  175.251; -190.131;   32.237
526.786;  203.824; -960.133; -647.760
527.068;  393.969; -124.123;  -67.778
527.349;  100.477; -865.137; -774.754
527.631;  246.738; -137.132;   22.238
527.913;  244.012; -664.127; -450.771
528.195;  312.934; -761.125; -639.774
528.477;  462.112;  -93.134;  -30.758
528.759;  262.873; -648.130; -522.766
529.040;  162.167; -569.123; -293.778
529.322;  138.438; -235.125;  -10.774
529.604;  222.077;  -47.130;   93.233
529.886;  209.524; -546.126; -302.773
530.167;  205.964;  232.870;  192.235
530.449;  102.934;    1.853;   63.265
530.731;   50.178; -572.122; -459.779
531.012;  132.211; -513.120; -216.784
531.294;  142.174; -118.116;  -43.792
531.575;  308.945;  290.875;  538.225
531.857;  113.803; -548.135; -266.757
532.138;  288.117; -113.141;   40.254
532.420;  299.797;  294.865;  403.244
532.701;  243.627; -722.133; -751.760
532.983;  496.732;  232.867;  182.239
533.264;  215.321; -243.126;  175.228
533.546;  -26.812; -491.136; -508.755
533.827;  133.122;  173.867;   -1.759
534.109;   48.403; -352.135;  -80.757
534.390;  173.545; -725.132; -582.762
534.671;  426.097; -270.135;  -82.756
534.953;  220.071; -751.123; -611.779
535.234;   46.150; -426.117; -255.789
535.515; -112.975; -891.119; -735.785
535.796;  -31.395; -431.128; -193.770
536.078; -218.241;-1050.124; -904.777
536.359;   51.672;  -22.123;    3.221
536.640;   -6.164; -480.125; -197.774
536.921;  300.185;  225.871;  143.232
537.202;  712.454;  -87.138;  -16.751
537.483;  862.759;  251.869;  377.236
537.764;  321.864;   17.870;   98.235
538.045;  -88.290; -543.134; -371.758
538.326;  -32.012; -596.129; -447.768
538.607;   14.615; -686.127; -476.771
538.888;  356.797;   98.879;    5.218
