
Integration time [ms]: 100.000
Averaging Nr. [scans]: 40
Smoothing Nr. [pixels]: 0
Data measured with spectrometer [name]: 2101013U2
Wave   ;Sample   ;Dark     ;Reference
[nm]   ;[counts] ;[counts] ;[counts] 

394.013;   47.074; -450.257; -315.536
394.305;  162.996; -461.258; -419.536
394.596; 1551.848; -676.269; -527.514
394.887; 4141.493; -796.268; -654.518
395.178; 1487.054;  145.736;   11.476
395.470;   64.792; -210.263; -356.526
395.761;  133.985;  305.734;  394.479
396.052;  116.023; -545.284; -306.489
396.343;  100.681; -557.276; -454.503
396.634;   33.219; -200.279; -290.497
396.926;   18.914; -618.268; -565.517
397.217;   55.837;   11.725;  -17.504
397.508;   29.406; -366.273; -154.507
397.799;   18.194; -555.279; -571.497
398.090;    9.887; -973.280; -902.495
398.381;   75.158;   11.708;  -11.473
398.672;  -15.241; -585.292; -742.473
398.963;   19.351; -348.279; -373.498
399.254;   70.970;   54.709; -209.475
399.545;  -37.644;-1017.266; -883.520
399.836;   44.043; -407.277; -343.501
400.127;   36.054; -205.295; -209.468
400.418;   33.224; -423.274; -392.506
400.709;   28.621; -359.281; -333.493
401.000;   34.375; -268.291; -309.476
401.290;  100.003;  225.698;  115.545
401.581;   62.502; -166.286; -228.485
401.872;   21.546; -542.298; -486.462
402.163;   57.895; -313.296; -252.467
402.454;   88.021; -123.291; -163.475
402.744;   40.185; -844.297; -813.465
403.035;  242.197; -226.293;  -86.471
403.326;  307.587; -366.292; -384.474
403.617;  291.814;  204.701;  165.539
403.907;  341.979; -593.283; -679.490
404.198; 3550.873; -545.307; -599.446
404.489; 9063.910; -618.283; -588.491
404.779; 2559.832; -618.302; -660.456
405.070;  274.582;  -67.304; -174.451
405.360;  465.324; -259.293; -238.472
405.651;  457.671;  125.699;   98.542
405.942;  160.221;  209.714;  127.516
406.232;   86.414; -432.285; -413.487
406.523;  237.641;  641.706;  758.530
406.813;   32.824; -579.286; -644.484
407.104;  172.806;  261.708;  144.527
407.394;   46.515; -604.299; -591.462
407.685;  126.538;  336.715;  222.513
407.975;   52.484; -400.283; -382.490
408.265;   94.963; -134.289; -190.478
408.556;   68.942; -472.291; -459.475
408.846;  172.592;  474.706;  429.530
409.137;   95.773;   -1.288; -216.480
409.427;   49.838; -193.285; -271.487
409.717;   53.434; -776.273; -692.508
410.007;  123.455;    4.715; -170.486
410.298;  117.757; -360.295; -342.469
410.588;   94.710; -495.285; -510.486
410.878;   42.886; -792.287; -873.482
411.168;  101.724; -481.298; -478.463
411.459;  143.077; -295.283; -242.489
411.749;   85.865; -609.292; -507.474
412.039;   78.571; -755.289; -386.480
412.329;  213.435;   40.722;  132.501
412.619;  204.274;  -62.286; -148.485
412.909;  351.616;  639.711;  594.521
413.199;  303.037; -130.280; -251.495
413.490;  367.330;  521.710;  352.523
413.780;  194.767;-1013.279; -913.496
414.070;  395.407;  -46.276;  235.497
414.360;  397.180; -729.278; -666.498
414.650;  548.782; -726.288; -688.482
414.940;  738.566; -538.280; -441.496
415.230; 1217.453;   50.712;   74.519
415.520; 8385.247;  155.730;   66.486
415.809;33648.921; -305.281; -125.493
416.099;25634.996; -388.277; -229.501
416.389; 7614.021;  435.726;  236.494
416.679; 4454.297;   91.738;   85.473
416.969;  736.892; -527.287; -503.483
417.259;  621.694;  341.721;  171.503
417.549;  865.445;  522.718;  318.508
417.838; 2344.867; -205.268; -147.518
418.128; 8198.486;  650.710;  492.522
418.418; 6719.917; -491.272; -579.509
418.708; 4458.921;    9.726;  -48.506
418.997;17549.391; -474.275; -480.505
419.287;17927.180; -733.273; -790.507
419.577;17673.026; -160.283; -123.489
419.866;56339.893; -588.277; -498.501
420.156;54671.642; -242.270;  -55.513
420.446; 9141.113; -112.263;  -26.526
420.735;  879.960; -376.271; -446.512
421.025;  885.929; 1830.722;  315.502
421.314;  542.032; -203.271; -226.512
421.604;  679.358;   89.732;  233.484
421.893;  402.053; -705.271; -602.511
422.183;  253.413; -487.263; -461.526
422.472;  374.955;  -36.271; -107.511
422.762;  400.788; -416.266; -379.521
423.051;  263.458; -916.276; -916.503
423.341;  319.982; -491.273; -439.507
423.630;  395.070; -121.265;   15.477
423.919;  425.266;   58.725;   49.495
424.209;  488.645;  -31.263;   56.473
424.498;  632.939;   68.732;  161.483
424.787; 1470.646; -535.267; -601.518
425.077; 4294.594;   34.735;   29.478
425.366; 4728.126; -734.262; -744.528
425.655;13569.008;  639.727;  259.493
425.945;34608.831; -313.247; -268.554
426.234;18523.554;  117.741;  300.467
426.523; 7221.635;  -86.259; -350.534
426.812; 9662.733;  107.734;  159.480
427.101;14772.704; -127.269; -323.515
427.390;17359.596;  -55.270;  -86.514
427.680; 2548.083; -624.257; -411.538
427.969;  474.346; -330.255; -301.540
428.258;  356.873; -385.257; -477.536
428.547;  512.497;  449.728;  397.490
428.836;  750.291; -421.253; -398.543
429.125; 1018.662; -199.259;  -72.534
429.414;  776.118; -330.251; -294.548
429.703; 4474.068; -231.251; -213.548
429.992;13889.772; -938.250; -828.549
430.281; 8725.479; -397.264; -331.524
430.570;  604.781;  -21.252;   32.454
430.859;  395.234;  279.741;  352.466
431.148;  405.376;  636.752;  631.446
431.437;  303.831;  391.748;  367.454
431.725;  209.250; -544.257; -481.536
432.014;  185.874; -845.253; -756.545
432.303;  413.766; -149.239; -105.569
432.592;  547.387; -460.263; -178.525
432.881; 1425.702; -601.248; -437.554
433.169; 9425.822; -343.255;  -61.540
433.458;19186.557;  445.765;  540.424
433.747; 7497.433; -397.261; -289.529
434.036;  950.938; -275.242; -280.564
434.324; 2848.037; -395.249; -379.551
434.613; 5204.730;   40.757;  159.437
434.902; 1484.455;  333.760;  439.433
435.190;  285.390;   75.761;  295.431
435.479;  148.483;  -52.245;   83.441
435.767;   89.918; -411.244; -427.561
436.056;  213.507; -340.242; -294.563
436.345;  467.832; -372.240; -223.568
436.633;  441.031;   60.750;  383.450
436.922;  191.685;  208.760;  414.432
437.210;  205.320; -194.236;    1.426
437.499;  463.880; -583.235; -432.576
437.787;  537.719; -339.236;  -10.574
438.075;  182.422;   56.761;  162.430
438.364;  199.550;  -44.238;  250.429
438.652;  113.400; -286.226; -138.592
438.941;   59.032;    3.770;  269.415
439.229;  -18.497; -665.252; -466.545
439.517;   17.615; -160.234;  -85.577
439.806;   -5.356; -501.225; -290.595
440.094;  150.574;  377.766;  650.421
440.382;   33.503; -653.233; -302.580
440.670;   35.304; -361.235; -285.576
440.959;    4.390; -347.223; -170.599
441.247;   33.446; -151.229; -109.587
441.535;   50.063; -266.235;   31.423
441.823;   -7.080; -497.234; -305.578
442.111;  156.526;  173.771;  327.412
442.400;  293.432; -628.245; -335.559
442.688;  517.223; -111.234; -620.579
442.976;  221.945; -786.213; -450.617
443.264;   38.427; -324.224; -364.597
443.552;   39.176; -258.226;   51.408
443.840;  142.511;  602.765;  876.423
444.128;   95.202;  265.767;  269.420
444.416;    1.104; -694.228; -312.588
444.704;    7.950; -465.219;  -92.605
444.992;   45.430;   -0.226;  240.407
445.280;   14.308; -517.230;  -94.585
445.568;   -0.501; -694.212; -396.618
445.856;  137.081; -174.221;  357.398
446.143;  216.771;  -54.220;   -7.604
446.431;  226.733;  -25.228;  625.411
446.719;  168.173;  489.783;  675.391
447.007;  145.501;  481.769;  705.416
447.295;  162.586;  597.777;  871.402
447.583;   79.893; -464.229;  -34.587
447.870;  104.152; -434.221; -202.601
448.158;  219.031; -104.230;  129.415
448.446;  132.997; -800.219; -338.604
448.733;  143.029;   13.776;  269.403
449.021;  185.049;   60.788;  341.382
449.309;  148.392; -296.210;  208.379
449.596;  230.369;  128.783;   59.392
449.884;  192.795; -571.222; -325.600
450.172;  261.140; -756.227; -406.590
450.459;  625.025;  645.786;  780.387
450.747; 3793.892; -411.218; -147.608
451.034;12181.235;  493.772;  889.411
451.322; 9762.778; -413.214; -170.614
451.609;  739.530;  292.777;  508.403
451.897;  911.617; -550.203; -183.634
452.184; 2666.211; -622.223; -400.598
452.472; 2414.342;   97.792;  269.375
452.759;  328.248;  512.781;  864.395
453.047;   85.446; -407.212; -125.617
453.334;   23.457; -732.219; -216.606
453.621;   39.581; -438.214; -161.615
453.909;   97.407;   13.796;  384.368
454.196;  105.336; -299.199; -123.641
454.483;  230.157;  317.798;  540.364
454.771;  129.896; -215.208;  196.374
455.058;   55.725; -316.207;  102.374
455.345;  143.128;   71.807;  344.347
455.632;  114.478; -128.207;  235.373
455.919;   62.088;  -82.196;  182.354
456.207;  -54.883; -774.198; -450.642
456.494;   -5.053; -475.200;  -66.639
456.781;   15.702; -399.202; -198.635
457.068;   65.461; -253.206;  -29.628
457.355;  -13.262; -698.206; -401.629
457.642;   12.569; -552.205; -290.630
457.929;   17.567; -778.194; -417.651
458.216;  117.071; -575.212; -354.617
458.503;  380.197; -173.193;  -19.652
458.790;  413.243; -864.208; -630.625
459.077;  363.683;  -77.202;  110.364
459.364; 1182.258; -350.195; -210.649
459.651; 2524.659;  -46.206;  220.372
459.938; 1126.757; -864.209; -665.623
460.225;  106.212;  132.799;  276.363
460.512;  -41.715; -836.197; -688.645
460.799;  117.365;  -32.218;  320.392
461.086;   98.002; -370.200; -251.640
461.372;    5.842; -509.198; -279.642
461.659;   61.340; -165.196;  108.354
461.946;   55.196; -445.193;  -54.651
462.233;  210.774;  842.800;  888.361
462.519;  493.996; -814.201; -464.639
462.806; 1505.811; -768.197; -497.645
463.093; 1262.270; -445.191;  -66.656
463.380;   -2.905; -920.186; -824.664
463.666;   57.038; -259.197;  -18.646
463.953;  117.027; -406.195; -243.648
464.239;  269.327; -173.195;  -77.648
464.526;  405.140;  413.806;  743.350
464.813;  317.409; -565.190; -304.658
465.099;  340.672;  606.807;  607.348
465.386;  266.277;  903.807;  921.348
465.672;   -3.064; -694.197; -522.645
465.959;    9.831; -598.188; -520.662
466.245;    7.352; -468.193; -359.652
466.532;   48.525; -109.195;   63.352
466.818;   24.644; -357.186; -216.664
467.104;  -11.907; -488.182; -415.672
467.391;  -13.788; -628.189; -459.658
467.677;    6.324; -289.186;    9.335
467.964;   -9.756; -682.189; -471.660
468.250;   34.227; -331.186; -160.665
468.536;   62.838;   90.811;  180.341
468.822;  -20.984; -821.184; -574.668
469.109;  148.864;  351.827;  471.311
469.395;  192.588;  729.808;  787.346
469.681;  223.542;   46.811;  156.341
469.967; 1794.697; -699.188; -382.660
470.254; 3930.357; -494.188; -306.662
470.540; 2496.163; -601.196; -476.646
470.826;  356.456; -488.181; -397.675
471.112;  422.195;  288.816;  113.331
471.398;   92.326; -253.183;  -58.670
471.684;   42.065; -626.177; -447.680
471.970;   37.785; -918.180; -981.675
472.256;   34.637; -521.192; -441.654
472.542;   19.752; -499.171; -434.691
472.828;   16.863; -743.182; -607.672
473.114;   23.279; -380.166; -283.700
473.400;    5.184; -504.175; -293.684
473.686;   30.012; -452.166; -400.701
473.972;   49.252; -230.174; -131.687
474.258;   -7.011; -925.173; -843.689
474.544;  325.605; -183.178;   -2.679
474.830;  534.736;  -65.175;   45.316
475.116;  822.086; -123.190; -196.658
475.401; 1092.238; -558.180; -467.676
475.687;  287.837; -725.180; -718.676
475.973;  -10.203; -673.181; -770.673
476.259;  221.564;  736.825;  764.315
476.544;  543.499; -539.176; -437.682
476.830; 1385.247; -398.172; -322.690
477.116; 1229.048; -430.177; -336.682
477.401;  164.562;  346.820;  358.324
477.687;    1.860; -289.175; -405.684
477.973;   39.626;   21.819;   28.326
478.258;  -11.589; -448.163; -348.706
478.544;   34.458;   21.815;   61.334
478.829;  -54.541; -818.171; -738.692
479.115;  -62.103; -749.172; -651.690
479.401;   10.072; -444.174; -449.686
479.686;   53.636; -253.180;  -74.676
479.972;  -16.064; -886.178; -776.680
480.257;   43.156; -258.166;  -65.700
480.542;   29.913; -614.170; -469.693
480.828;  244.482; 1288.824; 1392.317
481.113;  -29.120; -464.176; -426.683
481.399;   -7.110; -236.161; -202.711
481.684;  -45.220; -620.166; -462.700
481.969;   26.181; -158.159;  -73.713
482.255;  -30.124; -439.169; -285.695
482.540;    2.761; -569.178; -441.680
482.825;   25.839; -395.187; -404.663
483.110;  134.880;  -85.169; -105.696
483.396;  358.382; -840.157; -652.718
483.681;  745.877;  543.826;  730.313
483.966;  291.499; -696.160; -700.712
484.251;   -8.449; -404.174; -310.687
484.536;   14.418; -356.165; -378.703
484.822;   37.179; -205.173; -218.687
485.107;  -17.798; -599.152; -502.726
485.392;  109.150;  662.836;  541.296
485.677;   84.067;  354.832;  163.302
485.962;  103.279;  160.843;  270.283
486.247;   96.171;  -14.162;   -8.707
486.532;   62.657; -178.166; -325.701
486.817;  166.358;  381.839;  431.291
487.102;  160.007; -453.154; -514.722
487.387; 1105.859; -637.156; -652.718
487.672; 1953.506; -154.164;  -38.705
487.957; 1204.041; -394.160; -286.711
488.241;  329.347; -290.150; -314.729
488.526; 1191.304; -280.152; -148.726
488.811; 1983.138; -881.177; -818.680
489.096; 1392.960; -666.154; -702.723
489.381;  725.049;    3.847;  162.275
489.666;  661.289; -428.161; -510.710
489.950;  217.339;  558.846;  627.277
490.235;  -25.534; -480.151; -458.728
490.520;  -47.587; -756.161; -723.710
490.804;  -40.814; -827.156; -736.719
491.089;   16.066; -469.149; -299.732
491.374;   40.379; -132.164;  -75.704
491.658;   -8.470; -817.147; -717.735
491.943;  117.009; -657.152; -609.727
492.227;  230.152; -178.155;  -38.721
492.512;   33.328; -294.157; -341.717
492.797;  -62.641; -713.149; -716.731
493.081;  -37.842; -588.147; -598.735
493.366;  -28.135; -751.161; -635.711
493.650;  226.696;  831.859;  917.254
493.935;   66.279; -648.147; -447.734
494.219;  -21.219; -778.142; -687.743
494.503;  -27.647; -585.150; -487.730
494.788;   57.643;   46.842;   74.285
495.072;  127.999;  184.850;  434.271
495.356;  240.520; -463.148; -343.733
495.641;  535.466; -812.146; -736.736
495.925;  462.567; -976.156; -903.719
496.209;   10.915; -599.149; -451.732
496.494;  -38.018; -763.142; -544.744
496.778;   16.957; -364.154; -360.722
497.062;  -34.284; -819.156; -627.719
497.346;   -7.506; -869.160; -640.711
497.631;  181.224;  580.852;  560.266
497.915;   85.128;  -64.145;  175.261
498.199;   43.407; -341.157; -277.718
498.483;   44.027; -562.152; -508.725
498.767;  246.900;  301.850;  300.271
499.051;  285.912; -126.149; -100.732
499.335;   84.485; -693.149; -739.731
499.619;  -33.583; -381.129; -423.767
499.903;   22.500; -272.155;  -65.721
500.187;   24.715; -588.153; -316.724
500.471;   41.008; -796.152; -595.727
500.755;   85.164;   62.839;  -96.710
501.039;    0.976; -270.155; -357.721
501.323;   64.224;  -21.141;  264.254
501.607;    8.712; -447.163; -503.706
501.891;    2.408; -607.156; -512.718
502.174;  -31.958; -726.144; -585.741
502.458;   59.813;   89.849;  370.273
502.742;   58.702; -180.138; -191.751
503.026;  179.028; -412.147; -254.734
503.310;  323.229; -437.159; -375.713
503.593;  203.905; -464.147; -325.735
503.877;  143.175; -232.133; -156.760
504.161;  175.893;    2.847;  -50.724
504.444;  190.696; -841.158; -710.716
504.728;  751.528; -487.164; -522.704
505.012; 1081.321; -257.150;  -76.729
505.295;  797.490; -417.161; -212.711
505.579;  820.416; -256.156; -496.719
505.862; 1256.824; -555.145; -333.738
506.146; 1265.057; -681.159; -758.714
506.429;  557.258;  568.841;  461.286
506.713;  138.468; -732.151; -667.728
506.996;  489.156;   90.846;  295.278
507.280;  561.273; -633.165; -474.703
507.563;  376.474; -469.155; -261.721
507.847;  175.991; -423.153; -112.724
508.130;  181.416; -665.161; -456.711
508.413;  245.676; -758.167; -577.700
508.697;  396.276; -151.167;   12.300
508.980;  266.168; -422.153; -312.724
509.263;   28.994; -466.155; -450.720
509.547;   54.996; -124.150;   82.271
509.830;   57.168; -172.160;  140.289
510.113;   96.741;  128.844;  298.281
510.396;   49.600; -530.152; -300.725
510.680;   40.101; -818.145; -812.738
510.963;  197.312;  184.846;  180.277
511.246;  134.705; -493.150; -357.730
511.529;  284.356; -482.145;  -83.739
511.812;  641.371; -250.134;   10.241
512.095;  474.164; -740.151; -396.728
512.378;  102.935; -317.147; -245.736
512.661;   83.036; -703.137; -623.753
512.944;   88.734; -750.142; -637.744
513.227;  103.108; -170.137; -171.752
513.510;   60.692; -479.144; -671.741
513.793;   31.329; -485.140; -435.747
514.076;  176.367;  -43.127;  -39.771
514.359;  153.141; -294.149; -135.732
514.642;  151.262; -442.142; -567.744
514.925; 1147.902;  581.860;  561.253
515.208; 1659.192; -498.134; -443.758
515.491; 1046.558; -276.133; -182.761
515.773;  585.971; -410.143; -337.742
516.056; 3314.444;  249.864;  409.246
516.339; 4342.699; -754.136; -652.755
516.622; 2025.202; -518.150; -488.730
516.904;  562.754;  882.857;  975.257
517.187;  207.256; -730.138; -523.752
517.470;  437.203; -568.143; -510.743
517.752;  727.277; -624.136; -470.756
518.035;  602.966; -708.139; -725.749
518.318;  623.749; -799.136; -744.755
518.600; 4051.038; -300.132; -325.762
518.883; 5532.161;  310.858;   88.256
519.165; 2557.198; -585.138; -426.751
519.448;  428.437;  -61.132;  -19.762
519.730;  219.076; -573.126; -415.773
520.013;  247.329;  588.867;  664.240
520.295;  304.073;  -94.134;  -15.759
520.578;  642.728; -335.131; -305.764
520.860;  874.737; -254.132;   56.238
521.143;  652.104; -763.135; -584.756
521.425;  591.367; -251.125; -279.775
521.707;  997.718; -622.127; -380.771
521.990; 2816.393; -199.127;  167.229
522.272; 3260.106; -116.140;   -4.748
522.554; 1215.097; -237.143; -157.742
522.836;  255.546;  -24.134;   99.241
523.119;  196.752; -496.148; -189.734
523.401;  174.061; -448.130; -314.766
523.683;  167.312; -865.137; -693.753
523.965;  413.204;  408.862;  260.248
524.247;  436.967;   54.878;  170.220
524.529;  308.173; -451.134; -367.759
524.812;  513.738;   -3.130;  191.234
525.094; 1404.378; -773.138; -631.751
525.376; 2251.402; -143.124;   78.223
525.658; 1338.220; -441.136; -339.754
525.940;   87.049; -805.131; -671.764
526.222;   21.499; -188.136;  -88.755
526.504;   50.896; -190.131;   32.237
526.786;    9.351; -960.133; -647.760
527.068;  111.834; -124.123;  -67.778
527.349;   -7.384; -865.137; -774.754
527.631;  136.962; -137.132;   22.238
527.913;  230.592; -664.127; -450.771
528.195;  326.958; -761.125; -639.774
528.477;  396.992;  -93.134;  -30.758
528.759;  267.963; -648.130; -522.766
529.040;  147.583; -569.123; -293.778
529.322;   93.786; -235.125;  -10.774
529.604;   89.666;  -47.130;   93.233
529.886;   51.451; -546.126; -302.773
530.167;   72.681;  232.870;  192.235
530.449;   53.410;    1.853;   63.265
530.731;   67.941; -572.122; -459.779
531.012;  155.866; -513.120; -216.784
531.294;  129.162; -118.116;  -43.792
531.575;  214.692;  290.875;  538.225
531.857;  137.436; -548.135; -266.757
532.138;  122.647; -113.141;   40.254
532.420;  114.856;  294.865;  403.244
532.701;   75.904; -722.133; -751.760
532.983;  179.282;  232.867;  182.239
533.264;   57.098; -243.126;  175.228
533.546;  -49.451; -491.136; -508.755
533.827;   42.225;  173.867;   -1.759
534.109;   13.486; -352.135;  -80.757
534.390;  105.967; -725.132; -582.762
534.671;  304.981; -270.135;  -82.756
534.953;  222.936; -751.123; -611.779
535.234;   58.870; -426.117; -255.789
535.515;  -43.424; -891.119; -735.785
535.796;   -1.138; -431.128; -193.770
536.078;  -87.173;-1050.124; -904.777
536.359;  -13.888;  -22.123;    3.221
536.640;  -17.115; -480.125; -197.774
536.921;  168.647;  225.871;  143.232
537.202;  553.549;  -87.138;  -16.751
537.483;  673.252;  251.869;  377.236
537.764;  270.031;   17.870;   98.235
538.045;  -36.634; -543.134; -371.758
538.326;  -25.076; -596.129; -447.768
538.607;   79.294; -686.127; -476.771
538.888;  280.755;   98.879;    5.218
