
Integration time [ms]: 100.000
Averaging Nr. [scans]: 40
Smoothing Nr. [pixels]: 0
Data measured with spectrometer [name]: 2101013U2
Wave   ;Sample   ;Dark     ;Reference
[nm]   ;[counts] ;[counts] ;[counts] 

394.013;   44.570; -450.257; -315.536
394.305;  178.668; -461.258; -419.536
394.596; 1593.794; -676.269; -527.514
394.887; 4113.214; -796.268; -654.518
395.178; 1488.201;  145.736;   11.476
395.470;   77.514; -210.263; -356.526
395.761;  144.732;  305.734;  394.479
396.052;  103.919; -545.284; -306.489
396.343;   94.528; -557.276; -454.503
396.634;   34.315; -200.279; -290.497
396.926;   27.161; -618.268; -565.517
397.217;   49.808;   11.725;  -17.504
397.508;   28.552; -366.273; -154.507
397.799;   10.940; -555.279; -571.497
398.090;   -4.342; -973.280; -902.495
398.381;   73.604;   11.708;  -11.473
398.672;  -32.695; -585.292; -742.473
398.963;   21.223; -348.279; -373.498
399.254;   67.141;   54.709; -209.475
399.545;  -27.522;-1017.266; -883.520
399.836;   27.165; -407.277; -343.501
400.127;   46.776; -205.295; -209.468
400.418;   31.796; -423.274; -392.506
400.709;   18.468; -359.281; -333.493
401.000;   30.171; -268.291; -309.476
401.290;  102.549;  225.698;  115.545
401.581;   68.648; -166.286; -228.485
401.872;    8.042; -542.298; -486.462
402.163;   57.492; -313.296; -252.467
402.454;   74.142; -123.291; -163.475
402.744;   26.431; -844.297; -813.465
403.035;  230.469; -226.293;  -86.471
403.326;  300.359; -366.292; -384.474
403.617;  312.710;  204.701;  165.539
403.907;  342.751; -593.283; -679.490
404.198; 3517.994; -545.307; -599.446
404.489; 9096.182; -618.283; -588.491
404.779; 2540.504; -618.302; -660.456
405.070;  272.403;  -67.304; -174.451
405.360;  472.996; -259.293; -238.472
405.651;  451.167;  125.699;   98.542
405.942;  164.368;  209.714;  127.516
406.232;   86.435; -432.285; -413.487
406.523;  226.412;  641.706;  758.530
406.813;   42.595; -579.286; -644.484
407.104;  185.153;  261.708;  144.527
407.394;   62.162; -604.299; -591.462
407.685;  128.384;  336.715;  222.513
407.975;   61.655; -400.283; -382.490
408.265;  103.484; -134.289; -190.478
408.556;   53.013; -472.291; -459.475
408.846;  169.388;  474.706;  429.530
409.137;   92.594;   -1.288; -216.480
409.427;   75.985; -193.285; -271.487
409.717;   47.106; -776.273; -692.508
410.007;  138.177;    4.715; -170.486
410.298;  110.079; -360.295; -342.469
410.588;   70.332; -495.285; -510.486
410.878;   56.383; -792.287; -873.482
411.168;  111.595; -481.298; -478.463
411.459;  135.249; -295.283; -242.489
411.749;   90.987; -609.292; -507.474
412.039;   78.817; -755.289; -386.480
412.329;  215.031;   40.722;  132.501
412.619;  209.496;  -62.286; -148.485
412.909;  355.263;  639.711;  594.521
413.199;  289.584; -130.280; -251.495
413.490;  376.676;  521.710;  352.523
413.780;  212.164;-1013.279; -913.496
414.070;  388.704;  -46.276;  235.497
414.360;  415.527; -729.278; -666.498
414.650;  515.928; -726.288; -688.482
414.940;  719.763; -538.280; -441.496
415.230; 1212.549;   50.712;   74.519
415.520; 8362.568;  155.730;   66.486
415.809;33864.517; -305.281; -125.493
416.099;25579.342; -388.277; -229.501
416.389; 7675.293;  435.726;  236.494
416.679; 4436.244;   91.738;   85.473
416.969;  754.913; -527.287; -503.483
417.259;  638.441;  341.721;  171.503
417.549;  868.766;  522.718;  318.508
417.838; 2405.839; -205.268; -147.518
418.128; 8170.833;  650.710;  492.522
418.418; 6743.764; -491.272; -579.509
418.708; 4473.318;    9.726;  -48.506
418.997;17521.063; -474.275; -480.505
419.287;17922.001; -733.273; -790.507
419.577;17695.298; -160.283; -123.489
419.866;56494.790; -588.277; -498.501
420.156;54678.763; -242.270;  -55.513
420.446; 9099.185; -112.263;  -26.526
420.735;  866.181; -376.271; -446.512
421.025;  888.251; 1830.722;  315.502
421.314;  519.704; -203.271; -226.512
421.604;  644.080;   89.732;  233.484
421.893;  413.399; -705.271; -602.511
422.183;  287.535; -487.263; -461.526
422.472;  404.426;  -36.271; -107.511
422.762;  403.710; -416.266; -379.521
423.051;  255.180; -916.276; -916.503
423.341;  319.579; -491.273; -439.507
423.630;  391.817; -121.265;   15.477
423.919;  419.762;   58.725;   49.495
424.209;  467.966;  -31.263;   56.473
424.498;  632.210;   68.732;  161.483
424.787; 1435.943; -535.267; -601.518
425.077; 4318.590;   34.735;   29.478
425.366; 4717.023; -734.262; -744.528
425.655;13568.754;  639.727;  259.493
425.945;34900.878; -313.247; -268.554
426.234;18322.550;  117.741;  300.467
426.523; 7155.006;  -86.259; -350.534
426.812; 9715.555;  107.734;  159.480
427.101;14791.651; -127.269; -323.515
427.390;17339.968;  -55.270;  -86.514
427.680; 2508.055; -624.257; -411.538
427.969;  497.568; -330.255; -301.540
428.258;  360.820; -385.257; -477.536
428.547;  499.419;  449.728;  397.490
428.836;  722.112; -421.253; -398.543
429.125;  993.909; -199.259;  -72.534
429.414;  768.490; -330.251; -294.548
429.703; 4427.265; -231.251; -213.548
429.992;13838.219; -938.250; -828.549
430.281; 8733.126; -397.264; -331.524
430.570;  579.728;  -21.252;   32.454
430.859;  405.531;  279.741;  352.466
431.148;  387.448;  636.752;  631.446
431.437;  305.528;  391.748;  367.454
431.725;  200.647; -544.257; -481.536
432.014;  215.396; -845.253; -756.545
432.303;  407.838; -149.239; -105.569
432.592;  546.209; -460.263; -178.525
432.881; 1423.899; -601.248; -437.554
433.169; 9491.369; -343.255;  -61.540
433.458;19194.929;  445.765;  540.424
433.747; 7481.255; -397.261; -289.529
434.036;  936.510; -275.242; -280.564
434.324; 2913.384; -395.249; -379.551
434.613; 5209.527;   40.757;  159.437
434.902; 1497.177;  333.760;  439.433
435.190;  268.962;   75.761;  295.431
435.479;  151.955;  -52.245;   83.441
435.767;   99.040; -411.244; -427.561
436.056;  188.554; -340.242; -294.563
436.345;  482.704; -372.240; -223.568
436.633;  458.878;   60.750;  383.450
436.922;  185.357;  208.760;  414.432
437.210;  200.142; -194.236;    1.426
437.499;  444.377; -583.235; -432.576
437.787;  514.641; -339.236;  -10.574
438.075;  185.394;   56.761;  162.430
438.364;  194.872;  -44.238;  250.429
438.652;   98.597; -286.226; -138.592
438.941;   70.279;    3.770;  269.415
439.229;  -19.550; -665.252; -466.545
439.517;   33.262; -160.234;  -85.577
439.806;    3.716; -501.225; -290.595
440.094;  143.721;  377.766;  650.421
440.382;   35.600; -653.233; -302.580
440.670;   39.301; -361.235; -285.576
440.959;    4.487; -347.223; -170.599
441.247;   36.418; -151.229; -109.587
441.535;   60.510; -266.235;   31.423
441.823;  -12.482; -497.234; -305.578
442.111;  156.448;  173.771;  327.412
442.400;  277.979; -628.245; -335.559
442.688;  530.695; -111.234; -620.579
442.976;  223.692; -786.213; -450.617
443.264;   37.624; -324.224; -364.597
443.552;   31.699; -258.226;   51.408
443.840;  126.233;  602.765;  876.423
444.128;   85.774;  265.767;  269.420
444.416;  -11.024; -694.228; -312.588
444.704;    8.197; -465.219;  -92.605
444.992;   43.977;   -0.226;  240.407
445.280;   -0.695; -517.230;  -94.585
445.568;   -3.404; -694.212; -396.618
445.856;  137.103; -174.221;  357.398
446.143;  238.518;  -54.220;   -7.604
446.431;  215.305;  -25.228;  625.411
446.719;  167.396;  489.783;  675.391
447.007;  141.998;  481.769;  705.416
447.295;  167.658;  597.777;  871.402
447.583;   62.390; -464.229;  -34.587
447.870;  118.175; -434.221; -202.601
448.158;  214.053; -104.230;  129.415
448.446;  136.369; -800.219; -338.604
448.733;  128.651;   13.776;  269.403
449.021;  180.546;   60.788;  341.382
449.309;  164.139; -296.210;  208.379
449.596;  239.691;  128.783;   59.392
449.884;  191.517; -571.222; -325.600
450.172;  266.787; -756.227; -406.590
450.459;  633.272;  645.786;  780.387
450.747; 3747.164; -411.218; -147.608
451.034;12218.632;  493.772;  889.411
451.322; 9794.576; -413.214; -170.614
451.609;  714.778;  292.777;  508.403
451.897;  881.639; -550.203; -183.634
452.184; 2683.609; -622.223; -400.598
452.472; 2408.764;   97.792;  269.375
452.759;  323.495;  512.781;  864.395
453.047;   91.668; -407.212; -125.617
453.334;   32.379; -732.219; -216.606
453.621;   31.653; -438.214; -161.615
453.909;   76.305;   13.796;  384.368
454.196;  100.984; -299.199; -123.641
454.483;  217.630;  317.798;  540.364
454.771;  137.443; -215.208;  196.374
455.058;   53.397; -316.207;  102.374
455.345;  143.625;   71.807;  344.347
455.632;  106.826; -128.207;  235.373
455.919;   65.811;  -82.196;  182.354
456.207;  -60.936; -774.198; -450.642
456.494;  -15.681; -475.200;  -66.639
456.781;   13.000; -399.202; -198.635
457.068;   56.234; -253.206;  -29.628
457.355;  -10.640; -698.206; -401.629
457.642;   13.842; -552.205; -290.630
457.929;   16.014; -778.194; -417.651
458.216;  115.318; -575.212; -354.617
458.503;  396.970; -173.193;  -19.652
458.790;  425.840; -864.208; -630.625
459.077;  358.931;  -77.202;  110.364
459.364; 1185.706; -350.195; -210.649
459.651; 2525.531;  -46.206;  220.372
459.938; 1127.554; -864.209; -665.623
460.225;  110.459;  132.799;  276.363
460.512;  -43.317; -836.197; -688.645
460.799;  119.988;  -32.218;  320.392
461.086;   96.775; -370.200; -251.640
461.372;   16.340; -509.198; -279.642
461.659;   62.488; -165.196;  108.354
461.946;   26.268; -445.193;  -54.651
462.233;  204.747;  842.800;  888.361
462.519;  478.968; -814.201; -464.639
462.806; 1492.258; -768.197; -497.645
463.093; 1257.618; -445.191;  -66.656
463.380;   -3.558; -920.186; -824.664
463.666;   46.610; -259.197;  -18.646
463.953;  150.025; -406.195; -243.648
464.239;  293.675; -173.195;  -77.648
464.526;  404.638;  413.806;  743.350
464.813;  329.082; -565.190; -304.658
465.099;  344.395;  606.807;  607.348
465.386;  271.399;  903.807;  921.348
465.672;    5.483; -694.197; -522.645
465.959;   42.078; -598.188; -520.662
466.245;    3.774; -468.193; -359.652
466.532;   40.697; -109.195;   63.352
466.818;   21.242; -357.186; -216.664
467.104;  -23.610; -488.182; -415.672
467.391;  -22.691; -628.189; -459.658
467.677;   30.747; -289.186;    9.335
467.964;  -15.858; -682.189; -471.660
468.250;   29.600; -331.186; -160.665
468.536;   68.486;   90.811;  180.341
468.822;  -21.386; -821.184; -574.668
469.109;  144.012;  351.827;  471.311
469.395;  208.786;  729.808;  787.346
469.681;  215.089;   46.811;  156.341
469.967; 1774.045; -699.188; -382.660
470.254; 3987.129; -494.188; -306.662
470.540; 2470.536; -601.196; -476.646
470.826;  375.304; -488.181; -397.675
471.112;  400.743;  288.816;  113.331
471.398;   90.224; -253.183;  -58.670
471.684;   41.962; -626.177; -447.680
471.970;   26.183; -918.180; -981.675
472.256;   38.985; -521.192; -441.654
472.542;   16.475; -499.171; -434.691
472.828;   17.460; -743.182; -607.672
473.114;   23.952; -380.166; -283.700
473.400;    3.432; -504.175; -293.684
473.686;   37.110; -452.166; -400.701
473.972;   38.100; -230.174; -131.687
474.258;   -2.888; -925.173; -843.689
474.544;  320.253; -183.178;   -2.679
474.830;  525.334;  -65.175;   45.316
475.116;  802.309; -123.190; -196.658
475.401; 1122.736; -558.180; -467.676
475.687;  292.810; -725.180; -718.676
475.973;   -2.680; -673.181; -770.673
476.259;  222.887;  736.825;  764.315
476.544;  560.647; -539.176; -437.682
476.830; 1397.295; -398.172; -322.690
477.116; 1223.570; -430.177; -336.682
477.401;  159.860;  346.820;  358.324
477.687;  -17.443; -289.175; -405.684
477.973;   43.549;   21.819;   28.326
478.258;    4.034; -448.163; -348.706
478.544;   36.881;   21.815;   61.334
478.829;  -69.393; -818.171; -738.692
479.115;  -60.680; -749.172; -651.690
479.401;    6.069; -444.174; -449.686
479.686;   51.084; -253.180;  -74.676
479.972;   -2.541; -886.178; -776.680
480.257;   38.654; -258.166;  -65.700
480.542;   26.711; -614.170; -469.693
480.828;  248.505; 1288.824; 1392.317
481.113;  -26.097; -464.176; -426.683
481.399;  -20.737; -236.161; -202.711
481.684;  -41.747; -620.166; -462.700
481.969;   28.779; -158.159;  -73.713
482.255;  -14.901; -439.169; -285.695
482.540;    5.559; -569.178; -441.680
482.825;   35.237; -395.187; -404.663
483.110;  131.378;  -85.169; -105.696
483.396;  372.255; -840.157; -652.718
483.681;  743.600;  543.826;  730.313
483.966;  306.872; -696.160; -700.712
484.251;   -4.026; -404.174; -310.687
484.536;   -4.384; -356.165; -378.703
484.822;   22.877; -205.173; -218.687
485.107;  -15.600; -599.152; -502.726
485.392;  116.473;  662.836;  541.296
485.677;   78.565;  354.832;  163.302
485.962;   86.202;  160.843;  270.283
486.247;  101.744;  -14.162;   -8.707
486.532;   61.980; -178.166; -325.701
486.817;  167.581;  381.839;  431.291
487.102;  140.830; -453.154; -514.722
487.387; 1092.907; -637.156; -652.718
487.672; 1946.254; -154.164;  -38.705
487.957; 1192.514; -394.160; -286.711
488.241;  325.445; -290.150; -314.729
488.526; 1208.527; -280.152; -148.726
488.811; 2009.786; -881.177; -818.680
489.096; 1388.383; -666.154; -702.723
489.381;  716.698;    3.847;  162.275
489.666;  653.537; -428.161; -510.710
489.950;  210.737;  558.846;  627.277
490.235;  -30.286; -480.151; -458.728
490.520;  -34.364; -756.161; -723.710
490.804;  -33.016; -827.156; -736.719
491.089;   12.964; -469.149; -299.732
491.374;   34.427; -132.164;  -75.704
491.658;  -10.022; -817.147; -717.735
491.943;  117.932; -657.152; -609.727
492.227;  216.800; -178.155;  -38.721
492.512;   39.051; -294.157; -341.717
492.797;  -57.193; -713.149; -716.731
493.081;  -40.969; -588.147; -598.735
493.366;  -34.712; -751.161; -635.711
493.650;  227.645;  831.859;  917.254
493.935;   67.227; -648.147; -447.734
494.219;   -5.796; -778.142; -687.743
494.503;  -34.324; -585.150; -487.730
494.788;   67.491;   46.842;   74.285
495.072;  125.197;  184.850;  434.271
495.356;  241.068; -463.148; -343.733
495.641;  542.014; -812.146; -736.736
495.925;  453.140; -976.156; -903.719
496.209;   -1.037; -599.149; -451.732
496.494;  -33.645; -763.142; -544.744
496.778;   14.755; -364.154; -360.722
497.062;  -34.460; -819.156; -627.719
497.346;   -0.483; -869.160; -640.711
497.631;  163.372;  580.852;  560.266
497.915;   74.352;  -64.145;  175.261
498.199;   36.505; -341.157; -277.718
498.483;   48.500; -562.152; -508.725
498.767;  248.698;  301.850;  300.271
499.051;  282.511; -126.149; -100.732
499.335;   75.383; -693.149; -739.731
499.619;  -42.259; -381.129; -423.767
499.903;   22.873; -272.155;  -65.721
500.187;   16.614; -588.153; -316.724
500.471;   41.181; -796.152; -595.727
500.755;   95.712;   62.839;  -96.710
501.039;   14.999; -270.155; -357.721
501.323;   59.222;  -21.141;  264.254
501.607;   23.960; -447.163; -503.706
501.891;    1.681; -607.156; -512.718
502.174;  -44.260; -726.144; -585.741
502.458;   69.286;   89.849;  370.273
502.742;   54.200; -180.138; -191.751
503.026;  195.176; -412.147; -254.734
503.310;  339.577; -437.159; -375.713
503.593;  208.929; -464.147; -325.735
503.877;  144.549; -232.133; -156.760
504.161;  172.217;    2.847;  -50.724
504.444;  185.994; -841.158; -710.716
504.728;  767.826; -487.164; -522.704
505.012; 1102.769; -257.150;  -76.729
505.295;  791.063; -417.161; -212.711
505.579;  824.864; -256.156; -496.719
505.862; 1240.422; -555.145; -333.738
506.146; 1272.005; -681.159; -758.714
506.429;  560.631;  568.841;  461.286
506.713;  123.241; -732.151; -667.728
506.996;  492.204;   90.846;  295.278
507.280;  556.321; -633.165; -474.703
507.563;  379.272; -469.155; -261.721
507.847;  193.915; -423.153; -112.724
508.130;  178.339; -665.161; -456.711
508.413;  210.999; -758.167; -577.700
508.697;  397.824; -151.167;   12.300
508.980;  271.466; -422.153; -312.724
509.263;   21.117; -466.155; -450.720
509.547;   62.444; -124.150;   82.271
509.830;   46.716; -172.160;  140.289
510.113;  102.239;  128.844;  298.281
510.396;   38.698; -530.152; -300.725
510.680;   45.749; -818.145; -812.738
510.963;  187.010;  184.846;  180.277
511.246;  113.653; -493.150; -357.730
511.529;  293.855; -482.145;  -83.739
511.812;  635.644; -250.134;   10.241
512.095;  475.938; -740.151; -396.728
512.378;  110.533; -317.147; -245.736
512.661;   64.984; -703.137; -623.753
512.944;   94.482; -750.142; -637.744
513.227;  102.281; -170.137; -171.752
513.510;   74.890; -479.144; -671.741
513.793;   28.327; -485.140; -435.747
514.076;  168.016;  -43.127;  -39.771
514.359;  163.489; -294.149; -135.732
514.642;  154.660; -442.142; -567.744
514.925; 1122.250;  581.860;  561.253
515.208; 1667.690; -498.134; -443.758
515.491; 1049.982; -276.133; -182.761
515.773;  592.844; -410.143; -337.742
516.056; 3332.367;  249.864;  409.246
516.339; 4334.147; -754.136; -652.755
516.622; 2016.726; -518.150; -488.730
516.904;  558.578;  882.857;  975.257
517.187;  215.480; -730.138; -523.752
517.470;  426.326; -568.143; -510.743
517.752;  743.950; -624.136; -470.756
518.035;  585.165; -708.139; -725.749
518.318;  630.997; -799.136; -744.755
518.600; 4044.711; -300.132; -325.762
518.883; 5600.810;  310.858;   88.256
519.165; 2554.796; -585.138; -426.751
519.448;  439.835;  -61.132;  -19.762
519.730;  206.900; -573.126; -415.773
520.013;  228.352;  588.867;  664.240
520.295;  314.221;  -94.134;  -15.759
520.578;  622.251; -335.131; -305.764
520.860;  859.161; -254.132;   56.238
521.143;  637.378; -763.135; -584.756
521.425;  621.640; -251.125; -279.775
521.707; 1015.766; -622.127; -380.771
521.990; 2828.542; -199.127;  167.229
522.272; 3228.254; -116.140;   -4.748
522.554; 1202.145; -237.143; -157.742
522.836;  248.169;  -24.134;   99.241
523.119;  193.075; -496.148; -189.734
523.401;  167.209; -448.130; -314.766
523.683;  169.835; -865.137; -693.753
523.965;  417.627;  408.862;  260.248
524.247;  444.015;   54.878;  170.220
524.529;  325.771; -451.134; -367.759
524.812;  500.312;   -3.130;  191.234
525.094; 1398.751; -773.138; -631.751
525.376; 2211.826; -143.124;   78.223
525.658; 1334.869; -441.136; -339.754
525.940;  102.947; -805.131; -671.764
526.222;   19.498; -188.136;  -88.755
526.504;   52.270; -190.131;   32.237
526.786;   19.124; -960.133; -647.760
527.068;  110.908; -124.123;  -67.778
527.349;  -14.036; -865.137; -774.754
527.631;  131.035; -137.132;   22.238
527.913;  242.190; -664.127; -450.771
528.195;  331.457; -761.125; -639.774
528.477;  384.340;  -93.134;  -30.758
528.759;  283.786; -648.130; -522.766
529.040;  158.031; -569.123; -293.778
529.322;   91.085; -235.125;  -10.774
529.604;   85.189;  -47.130;   93.233
529.886;   48.924; -546.126; -302.773
530.167;   74.454;  232.870;  192.235
530.449;   49.633;    1.853;   63.265
530.731;   66.889; -572.122; -459.779
531.012;  147.589; -513.120; -216.784
531.294;  119.411; -118.116;  -43.792
531.575;  195.540;  290.875;  538.225
531.857;  134.984; -548.135; -266.757
532.138;  125.495; -113.141;   40.254
532.420;  109.055;  294.865;  403.244
532.701;   76.202; -722.133; -751.760
532.983;  178.331;  232.867;  182.239
533.264;   50.947; -243.126;  175.228
533.546;  -49.902; -491.136; -508.755
533.827;   27.698;  173.867;   -1.759
534.109;   10.684; -352.135;  -80.757
534.390;  103.490; -725.132; -582.762
534.671;  298.129; -270.135;  -82.756
534.953;  207.734; -751.123; -611.779
535.234;   46.193; -426.117; -255.789
535.515;  -44.151; -891.119; -735.785
535.796;    2.835; -431.128; -193.770
536.078; -102.925;-1050.124; -904.777
536.359;    9.310;  -22.123;    3.221
536.640;  -18.241; -480.125; -197.774
536.921;  171.445;  225.871;  143.232
537.202;  544.273;  -87.138;  -16.751
537.483;  688.400;  251.869;  377.236
537.764;  267.054;   17.870;   98.235
538.045;  -28.986; -543.134; -371.758
538.326;  -18.003; -596.129; -447.768
538.607;   77.517; -686.127; -476.771
538.888;  279.129;   98.879;    5.218
