
Integration time [ms]: 200.000
Averaging Nr. [scans]: 10
Smoothing Nr. [pixels]: 0
Data measured with spectrometer [name]: 2101013U2
Wave   ;Sample   ;Dark     ;Reference
[nm]   ;[counts] ;[counts] ;[counts] 

394.013;   95.357; -450.257; -315.536
394.305;  389.854; -461.258; -419.536
394.596; 2120.810; -676.269; -527.514
394.887; 5125.733; -796.268; -654.518
395.178; 2092.276;  145.736;   11.476
395.470;  130.191; -210.263; -356.526
395.761;  374.654;  305.734;  394.479
396.052;  564.136; -545.284; -306.489
396.343;  617.233; -557.276; -454.503
396.634;  157.489; -200.279; -290.497
396.926;  109.830; -618.268; -565.517
397.217;  138.239;   11.725;  -17.504
397.508;   49.461; -366.273; -154.507
397.799;   43.889; -555.279; -571.497
398.090;  -52.719; -973.280; -902.495
398.381;  168.331;   11.708;  -11.473
398.672;  -35.567; -585.292; -742.473
398.963;   34.798; -348.279; -373.498
399.254;  159.745;   54.709; -209.475
399.545;  -95.351;-1017.266; -883.520
399.836;  103.218; -407.277; -343.501
400.127;   58.398; -205.295; -209.468
400.418;   83.554; -423.274; -392.506
400.709;   57.964; -359.281; -333.493
401.000;   99.451; -268.291; -309.476
401.290;  185.909;  225.698;  115.545
401.581;  122.212; -166.286; -228.485
401.872;   -3.441; -542.298; -486.462
402.163;   61.287; -313.296; -252.467
402.454;  148.846; -123.291; -163.475
402.744;   40.775; -844.297; -813.465
403.035;  596.319; -226.293;  -86.471
403.326;  752.737; -366.292; -384.474
403.617;  625.051;  204.701;  165.539
403.907;  412.443; -593.283; -679.490
404.198; 4345.545; -545.307; -599.446
404.489;11592.650; -618.283; -588.491
404.779; 3816.714; -618.302; -660.456
405.070;  394.784;  -67.304; -174.451
405.360;  604.821; -259.293; -238.472
405.651;  651.530;  125.699;   98.542
405.942;  300.305;  209.714;  127.516
406.232;  316.125; -432.285; -413.487
406.523;  762.412;  641.706;  758.530
406.813;  129.108; -579.286; -644.484
407.104;  537.929;  261.708;  144.527
407.394;  227.353; -604.299; -591.462
407.685;  266.924;  336.715;  222.513
407.975;   84.248; -400.283; -382.490
408.265;  212.566; -134.289; -190.478
408.556;   65.542; -472.291; -459.475
408.846;  328.413;  474.706;  429.530
409.137;  151.678;   -1.288; -216.480
409.427;   43.225; -193.285; -271.487
409.717;   37.966; -776.273; -692.508
410.007;  233.516;    4.715; -170.486
410.298;  153.602; -360.295; -342.469
410.588;   85.421; -495.285; -510.486
410.878;   13.093; -792.287; -873.482
411.168;  185.362; -481.298; -478.463
411.459;  201.541; -295.283; -242.489
411.749;   57.040; -609.292; -507.474
412.039;   89.676; -755.289; -386.480
412.329;  385.208;   40.722;  132.501
412.619;  326.709;  -62.286; -148.485
412.909;  669.170;  639.711;  594.521
413.199;  493.782; -130.280; -251.495
413.490;  684.857;  521.710;  352.523
413.780;  196.587;-1013.279; -913.496
414.070;  574.934;  -46.276;  235.497
414.360;  564.602; -729.278; -666.498
414.650;  680.088; -726.288; -688.482
414.940;  950.287; -538.280; -441.496
415.230; 1585.884;   50.712;   74.519
415.520;10683.809;  155.730;   66.486
415.809;42347.663; -305.281; -125.493
416.099;34015.721; -388.277; -229.501
416.389; 9314.551;  435.726;  236.494
416.679; 5728.297;   91.738;   85.473
416.969;  906.800; -527.287; -503.483
417.259; 1073.390;  341.721;  171.503
417.549; 1176.061;  522.718;  318.508
417.838; 2886.833; -205.268; -147.518
418.128; 9871.164;  650.710;  492.522
418.418; 8381.075; -491.272; -579.509
418.708; 5498.951;    9.726;  -48.506
418.997;21003.445; -474.275; -480.505
419.287;22204.460; -733.273; -790.507
419.577;20796.340; -160.283; -123.489
419.866;64318.218; -588.277; -498.501
420.156;64294.003; -242.270;  -55.513
420.446;12662.186; -112.263;  -26.526
420.735; 1340.095; -376.271; -446.512
421.025; 1528.701; 1830.722;  315.502
421.314; 1036.092; -203.271; -226.512
421.604; 1865.023;   89.732;  233.484
421.893; 1067.587; -705.271; -602.511
422.183;  358.686; -487.263; -461.526
422.472;  647.789;  -36.271; -107.511
422.762;  699.658; -416.266; -379.521
423.051;  307.035; -916.276; -916.503
423.341;  437.763; -491.273; -439.507
423.630;  683.866; -121.265;   15.477
423.919;  639.144;   58.725;   49.495
424.209;  605.394;  -31.263;   56.473
424.498;  870.729;   68.732;  161.483
424.787; 1846.238; -535.267; -601.518
425.077; 5614.064;   34.735;   29.478
425.366; 7440.302; -734.262; -744.528
425.655;17044.164;  639.727;  259.493
425.945;39457.682; -313.247; -268.554
426.234;22536.833;  117.741;  300.467
426.523; 8926.541;  -86.259; -350.534
426.812;12372.252;  107.734;  159.480
427.101;17950.617; -127.269; -323.515
427.390;22538.809;  -55.270;  -86.514
427.680; 4536.868; -624.257; -411.538
427.969;  759.083; -330.255; -301.540
428.258;  472.656; -385.257; -477.536
428.547;  848.480;  449.728;  397.490
428.836; 1667.106; -421.253; -398.543
429.125; 2412.343; -199.259;  -72.534
429.414; 1262.437; -330.251; -294.548
429.703; 5373.437; -231.251; -213.548
429.992;16280.542; -938.250; -828.549
430.281;11084.776; -397.264; -331.524
430.570;  991.024;  -21.252;   32.454
430.859;  921.440;  279.741;  352.466
431.148;  768.976;  636.752;  631.446
431.437;  535.323;  391.748;  367.454
431.725;  249.358; -544.257; -481.536
432.014;  158.816; -845.253; -756.545
432.303;  632.081; -149.239; -105.569
432.592;  869.186; -460.263; -178.525
432.881; 1717.377; -601.248; -437.554
433.169;10823.584; -343.255;  -61.540
433.458;22381.028;  445.765;  540.424
433.747; 9492.910; -397.261; -289.529
434.036; 1377.748; -275.242; -280.564
434.324; 3504.960; -395.249; -379.551
434.613; 6304.939;   40.757;  159.437
434.902; 2110.167;  333.760;  439.433
435.190;  742.680;   75.761;  295.431
435.479;  484.813;  -52.245;   83.441
435.767;  126.324; -411.244; -427.561
436.056;  312.042; -340.242; -294.563
436.345;  589.971; -372.240; -223.568
436.633;  690.753;   60.750;  383.450
436.922;  398.674;  208.760;  414.432
437.210;  695.214; -194.236;    1.426
437.499; 2135.526; -583.235; -432.576
437.787; 2427.514; -339.236;  -10.574
438.075;  688.187;   56.761;  162.430
438.364;  936.691;  -44.238;  250.429
438.652;  553.637; -286.226; -138.592
438.941;  211.587;    3.770;  269.415
439.229;  -32.180; -665.252; -466.545
439.517;   64.937; -160.234;  -85.577
439.806;  -34.041; -501.225; -290.595
440.094;  305.948;  377.766;  650.421
440.382;  187.353; -653.233; -302.580
440.670;  249.725; -361.235; -285.576
440.959;    7.083; -347.223; -170.599
441.247;   95.703; -151.229; -109.587
441.535;  155.535; -266.235;   31.423
441.823;   -1.056; -497.234; -305.578
442.111;  298.608;  173.771;  327.412
442.400;  623.112; -628.245; -335.559
442.688; 1666.847; -111.234; -620.579
442.976; 1089.205; -786.213; -450.617
443.264;  132.468; -324.224; -364.597
443.552;  129.538; -258.226;   51.408
443.840;  268.133;  602.765;  876.423
444.128;  217.252;  265.767;  269.420
444.416;  -25.988; -694.228; -312.588
444.704;   -1.576; -465.219;  -92.605
444.992;  120.042;   -0.226;  240.407
445.280;   50.388; -517.230;  -94.585
445.568;   11.510; -694.212; -396.618
445.856;  414.602; -174.221;  357.398
446.143;  904.419;  -54.220;   -7.604
446.431;  785.017;  -25.228;  625.411
446.719;  373.551;  489.783;  675.391
447.007;  284.580;  481.769;  705.416
447.295;  322.279;  597.777;  871.402
447.583;   52.999; -464.229;  -34.587
447.870;  180.898; -434.221; -202.601
448.158;  529.486; -104.230;  129.415
448.446;  354.820; -800.219; -338.604
448.733;  224.270;   13.776;  269.403
449.021;  369.109;   60.788;  341.382
449.309;  280.130; -296.210;  208.379
449.596;  351.646;  128.783;   59.392
449.884;  204.388; -571.222; -325.600
450.172;  223.025; -756.227; -406.590
450.459;  762.982;  645.786;  780.387
450.747; 4191.044; -411.218; -147.608
451.034;13238.619;  493.772;  889.411
451.322;11215.486; -413.214; -170.614
451.609;  971.772;  292.777;  508.403
451.897;  971.318; -550.203; -183.634
452.184; 3026.679; -622.223; -400.598
452.472; 2976.160;   97.792;  269.375
452.759;  586.321;  512.781;  864.395
453.047;  171.106; -407.212; -125.617
453.334;   98.932; -732.219; -216.606
453.621;   83.189; -438.214; -161.615
453.909;  197.407;   13.796;  384.368
454.196;  166.370; -299.199; -123.641
454.483;  330.736;  317.798;  540.364
454.771;  231.164; -215.208;  196.374
455.058;   81.969; -316.207;  102.374
455.345;  210.247;   71.807;  344.347
455.632;  189.373; -128.207;  235.373
455.919;   96.101;  -82.196;  182.354
456.207; -147.924; -774.198; -450.642
456.494;  -45.547; -475.200;  -66.639
456.781;  -29.470; -399.202; -198.635
457.068;  124.083; -253.206;  -29.628
457.355;  -52.016; -698.206; -401.629
457.642;  -46.408; -552.205; -290.630
457.929;  -46.666; -778.194; -417.651
458.216;   63.006; -575.212; -354.617
458.503;  385.841; -173.193;  -19.652
458.790;  341.261; -864.208; -630.625
459.077;  424.637;  -77.202;  110.364
459.364; 1312.325; -350.195; -210.649
459.651; 2825.280;  -46.206;  220.372
459.938; 1268.648; -864.209; -665.623
460.225;  206.041;  132.799;  276.363
460.512; -110.403; -836.197; -688.645
460.799;  164.642;  -32.218;  320.392
461.086;   89.359; -370.200; -251.640
461.372;   20.377; -509.198; -279.642
461.659;  123.203; -165.196;  108.354
461.946;   46.739; -445.193;  -54.651
462.233;  404.956;  842.800;  888.361
462.519;  496.352; -814.201; -464.639
462.806; 1590.198; -768.197; -497.645
463.093; 1492.068; -445.191;  -66.656
463.380;  -86.375; -920.186; -824.664
463.666;   55.101; -259.197;  -18.646
463.953;  140.717; -406.195; -243.648
464.239;  316.617; -173.195;  -77.648
464.526;  646.932;  413.806;  743.350
464.813;  481.484; -565.190; -304.658
465.099;  569.540;  606.807;  607.348
465.386;  545.246;  903.807;  921.348
465.672;   -6.902; -694.197; -522.645
465.959;   -5.791; -598.188; -520.662
466.245;    5.546; -468.193; -359.652
466.532;  120.714; -109.195;   63.352
466.818;   77.125; -357.186; -216.664
467.104;  -44.019; -488.182; -415.672
467.391;    1.386; -628.189; -459.658
467.677;   48.630; -289.186;    9.335
467.964;    2.196; -682.189; -471.660
468.250;   88.533; -331.186; -160.665
468.536;  121.688;   90.811;  180.341
468.822;  -90.550; -821.184; -574.668
469.109;  283.793;  351.827;  471.311
469.395;  346.759;  729.808;  787.346
469.681;  303.792;   46.811;  156.341
469.967; 2002.099; -699.188; -382.660
470.254; 4490.210; -494.188; -306.662
470.540; 2936.601; -601.196; -476.646
470.826;  364.196; -488.181; -397.675
471.112;  565.755;  288.816;  113.331
471.398;  130.661; -253.183;  -58.670
471.684;   17.635; -626.177; -447.680
471.970;  -76.099; -918.180; -981.675
472.256;   -5.442; -521.192; -441.654
472.542;    0.608; -499.171; -434.691
472.828;  -23.125; -743.182; -607.672
473.114;   50.469; -380.166; -283.700
473.400;    4.258; -504.175; -293.684
473.686;   20.178; -452.166; -400.701
473.972;   66.079; -230.174; -131.687
474.258;  -86.207; -925.173; -843.689
474.544;  342.624; -183.178;   -2.679
474.830;  555.361;  -65.175;   45.316
475.116;  805.386; -123.190; -196.658
475.401; 1122.505; -558.180; -467.676
475.687;  275.403; -725.180; -718.676
475.973;  -32.214; -673.181; -770.673
476.259;  430.664;  736.825;  764.315
476.544;  575.047; -539.176; -437.682
476.830; 1283.303; -398.172; -322.690
477.116; 1235.445; -430.177; -336.682
477.401;  258.004;  346.820;  358.324
477.687;  -47.641; -289.175; -405.684
477.973;   50.891;   21.819;   28.326
478.258;  -46.294; -448.163; -348.706
478.544;   68.841;   21.815;   61.334
478.829; -128.984; -818.171; -738.692
479.115; -132.598; -749.172; -651.690
479.401;  -17.128; -444.174; -449.686
479.686;   36.202; -253.180;  -74.676
479.972; -100.469; -886.178; -776.680
480.257;   46.771; -258.166;  -65.700
480.542;  -19.179; -614.170; -469.693
480.828;  493.356; 1288.824; 1392.317
481.113;  -41.847; -464.176; -426.683
481.399;  -14.661; -236.161; -202.711
481.684; -109.530; -620.166; -462.700
481.969;   29.058; -158.159;  -73.713
482.255;  -31.564; -439.169; -285.695
482.540;  -37.768; -569.178; -441.680
482.825;   -1.282; -395.187; -404.663
483.110;  159.041;  -85.169; -105.696
483.396;  315.288; -840.157; -652.718
483.681;  870.579;  543.826;  730.313
483.966;  238.949; -696.160; -700.712
484.251;   -0.323; -404.174; -310.687
484.536;  -34.515; -356.165; -378.703
484.822;   27.982; -205.173; -218.687
485.107;  -53.259; -599.152; -502.726
485.392;  255.893;  662.836;  541.296
485.677;  137.454;  354.832;  163.302
485.962;  181.284;  160.843;  270.283
486.247;  136.217;  -14.162;   -8.707
486.532;   53.472; -178.166; -325.701
486.817;  296.931;  381.839;  431.291
487.102;  114.617; -453.154; -514.722
487.387; 1088.590; -637.156; -652.718
487.672; 1952.300; -154.164;  -38.705
487.957; 1295.841; -394.160; -286.711
488.241;  330.364; -290.150; -314.729
488.526; 1206.743; -280.152; -148.726
488.811; 1971.034; -881.177; -818.680
489.096; 1460.721; -666.154; -702.723
489.381;  794.238;    3.847;  162.275
489.666;  643.239; -428.161; -510.710
489.950;  350.925;  558.846;  627.277
490.235;  -74.443; -480.151; -458.728
490.520; -107.663; -756.161; -723.710
490.804; -105.507; -827.156; -736.719
491.089;  -32.914; -469.149; -299.732
491.374;   81.998; -132.164;  -75.704
491.658;  -95.098; -817.147; -717.735
491.943;  178.949; -657.152; -609.727
492.227;  379.811; -178.155;  -38.721
492.512;   67.784; -294.157; -341.717
492.797; -164.723; -713.149; -716.731
493.081;  -98.094; -588.147; -598.735
493.366; -121.161; -751.161; -635.711
493.650;  423.080;  831.859;  917.254
493.935;   -5.499; -648.147; -447.734
494.219;  -99.638; -778.142; -687.743
494.503;  -89.429; -585.150; -487.730
494.788;  113.772;   46.842;   74.285
495.072;  187.666;  184.850;  434.271
495.356;  274.590; -463.148; -343.733
495.641;  597.015; -812.146; -736.736
495.925;  580.100; -976.156; -903.719
496.209;   31.085; -599.149; -451.732
496.494; -128.637; -763.142; -544.744
496.778;  -13.083; -364.154; -360.722
497.062; -114.301; -819.156; -627.719
497.346;  -96.356; -869.160; -640.711
497.631;  283.095;  580.852;  560.266
497.915;  138.429;  -64.145;  175.261
498.199;   50.788; -341.157; -277.718
498.483;    6.940; -562.152; -508.725
498.767;  324.967;  301.850;  300.271
499.051;  346.382; -126.149; -100.732
499.335;   28.579; -693.149; -739.731
499.619;  -94.580; -381.129; -423.767
499.903;   39.410; -272.155;  -65.721
500.187;   17.027; -588.153; -316.724
500.471;  -36.752; -796.152; -595.727
500.755;  182.938;   62.839;  -96.710
501.039;   33.710; -270.155; -357.721
501.323;  168.382;  -21.141;  264.254
501.607;   44.606; -447.163; -503.706
501.891;  -41.710; -607.156; -512.718
502.174;  -93.655; -726.144; -585.741
502.458;  113.553;   89.849;  370.273
502.742;   45.615; -180.138; -191.751
503.026;  166.300; -412.147; -254.734
503.310;  278.356; -437.159; -375.713
503.593;  208.403; -464.147; -325.735
503.877;  173.271; -232.133; -156.760
504.161;  211.631;    2.847;  -50.724
504.444;  139.775; -841.158; -710.716
504.728;  704.597; -487.164; -522.704
505.012; 1200.763; -257.150;  -76.729
505.295;  864.839; -417.161; -212.711
505.579;  883.299; -256.156; -496.719
505.862; 1238.724; -555.145; -333.738
506.146; 1193.160; -681.159; -758.714
506.429;  708.260;  568.841;  461.286
506.713;   80.459; -732.151; -667.728
506.996;  534.416;   90.846;  295.278
507.280;  532.890; -633.165; -474.703
507.563;  371.208; -469.155; -261.721
507.847;  145.828; -423.153; -112.724
508.130;  114.340; -665.161; -456.711
508.413;  176.165; -758.167; -577.700
508.697;  375.465; -151.167;   12.300
508.980;  237.630; -422.153; -312.724
509.263;  -35.598; -466.155; -450.720
509.547;   62.263; -124.150;   82.271
509.830;   31.243; -172.160;  140.289
510.113;  146.899;  128.844;  298.281
510.396;   10.638; -530.152; -300.725
510.680;   88.926; -818.145; -812.738
510.963;  714.723;  184.846;  180.277
511.246;  539.874; -493.150; -357.730
511.529;  359.833; -482.145;  -83.739
511.812;  622.367; -250.134;   10.241
512.095;  377.755; -740.151; -396.728
512.378;   92.708; -317.147; -245.736
512.661;   -3.174; -703.137; -623.753
512.944;    1.665; -750.142; -637.744
513.227;   90.822; -170.137; -171.752
513.510;    5.545; -479.144; -671.741
513.793;   -4.812; -485.140; -435.747
514.076;  221.449;  -43.127;  -39.771
514.359;  134.886; -294.149; -135.732
514.642;  118.569; -442.142; -567.744
514.925; 1305.586;  581.860;  561.253
515.208; 1636.962; -498.134; -443.758
515.491; 1153.581; -276.133; -182.761
515.773;  626.450; -410.143; -337.742
516.056; 3465.735;  249.864;  409.246
516.339; 4507.040; -754.136; -652.755
516.622; 2752.670; -518.150; -488.730
516.904; 1656.360;  882.857;  975.257
517.187;  633.220; -730.138; -523.752
517.470;  563.258; -568.143; -510.743
517.752;  637.344; -624.136; -470.756
518.035;  538.903; -708.139; -725.749
518.318;  545.140; -799.136; -744.755
518.600; 4116.286; -300.132; -325.762
518.883; 5565.668;  310.858;   88.256
519.165; 2712.910; -585.138; -426.751
519.448;  540.085;  -61.132;  -19.762
519.730;  238.460; -573.126; -415.773
520.013;  498.975;  588.867;  664.240
520.295;  965.669;  -94.134;  -15.759
520.578; 2142.103; -335.131; -305.764
520.860; 2434.185; -254.132;   56.238
521.143; 1330.347; -763.135; -584.756
521.425;  715.978; -251.125; -279.775
521.707; 1052.850; -622.127; -380.771
521.990; 2904.350; -199.127;  167.229
522.272; 3343.590; -116.140;   -4.748
522.554; 1471.751; -237.143; -157.742
522.836;  485.566;  -24.134;   99.241
523.119;  300.899; -496.148; -189.734
523.401;  202.313; -448.130; -314.766
523.683;  111.627; -865.137; -693.753
523.965;  464.317;  408.862;  260.248
524.247;  451.407;   54.878;  170.220
524.529;  327.269; -451.134; -367.759
524.812;  564.515;   -3.130;  191.234
525.094; 1427.816; -773.138; -631.751
525.376; 2290.890; -143.124;   78.223
525.658; 1380.236; -441.136; -339.754
525.940;    0.399; -805.131; -671.764
526.222;   29.241; -188.136;  -88.755
526.504;  134.996; -190.131;   32.237
526.786;  154.772; -960.133; -647.760
527.068;  397.098; -124.123;  -67.778
527.349;   48.132; -865.137; -774.754
527.631;  163.185; -137.132;   22.238
527.913;  176.749; -664.127; -450.771
528.195;  222.968; -761.125; -639.774
528.477;  435.462;  -93.134;  -30.758
528.759;  183.315; -648.130; -522.766
529.040;   56.896; -569.123; -293.778
529.322;   79.472; -235.125;  -10.774
529.604;  196.918;  -47.130;   93.233
529.886;  132.559; -546.126; -302.773
530.167;  148.807;  232.870;  192.235
530.449;   86.008;    1.853;   63.265
530.731;   20.006; -572.122; -459.779
531.012;  104.635; -513.120; -216.784
531.294;  109.089; -118.116;  -43.792
531.575;  272.778;  290.875;  538.225
531.857;   54.655; -548.135; -266.757
532.138;  204.180; -113.141;   40.254
532.420;  264.549;  294.865;  403.244
532.701;  206.676; -722.133; -751.760
532.983;  475.080;  232.867;  182.239
533.264;  175.157; -243.126;  175.228
533.546; -119.959; -491.136; -508.755
533.827;  119.771;  173.867;   -1.759
534.109;    2.754; -352.135;  -80.757
534.390;   86.891; -725.132; -582.762
534.671;  353.349; -270.135;  -82.756
534.953;  194.500; -751.123; -611.779
535.234;   26.568; -426.117; -255.789
535.515; -166.154; -891.119; -735.785
535.796;  -62.857; -431.128; -193.770
536.078; -233.010;-1050.124; -904.777
536.359;  -18.399;  -22.123;    3.221
536.640;  -35.830; -480.125; -197.774
536.921;  255.726;  225.871;  143.232
537.202;  606.412;  -87.138;  -16.751
537.483;  761.203;  251.869;  377.236
537.764;  321.007;   17.870;   98.235
538.045;  -95.340; -543.134; -371.758
538.326;  -92.572; -596.129; -447.768
538.607;  -12.749; -686.127; -476.771
538.888;  280.122;   98.879;    5.218
