
Integration time [ms]: 200.000
Averaging Nr. [scans]: 10
Smoothing Nr. [pixels]: 0
Data measured with spectrometer [name]: 2101013U2
Wave   ;Sample   ;Dark     ;Reference
[nm]   ;[counts] ;[counts] ;[counts] 

394.013;   73.390; -450.257; -315.536
394.305;  310.488; -461.258; -419.536
394.596; 1290.059; -676.269; -527.514
394.887; 2867.980; -796.268; -654.518
395.178; 1225.518;  145.736;   11.476
395.470;  128.032; -210.263; -356.526
395.761;  371.999;  305.734;  394.479
396.052;  601.403; -545.284; -306.489
396.343;  601.990; -557.276; -454.503
396.634;  105.651; -200.279; -290.497
396.926;  122.777; -618.268; -565.517
397.217;  176.396;   11.725;  -17.504
397.508;   52.216; -366.273; -154.507
397.799;   23.251; -555.279; -571.497
398.090;  -98.456; -973.280; -902.495
398.381;  158.410;   11.708;  -11.473
398.672;  -63.589; -585.292; -742.473
398.963;   43.759; -348.279; -373.498
399.254;  130.023;   54.709; -209.475
399.545; -146.906;-1017.266; -883.520
399.836;   59.477; -407.277; -343.501
400.127;   87.980; -205.295; -209.468
400.418;   73.909; -423.274; -392.506
400.709;   70.028; -359.281; -333.493
401.000;   69.028; -268.291; -309.476
401.290;  177.401;  225.698;  115.545
401.581;   75.682; -166.286; -228.485
401.872;  -16.554; -542.298; -486.462
402.163;   40.071; -313.296; -252.467
402.454;  125.524; -123.291; -163.475
402.744;   19.360; -844.297; -813.465
403.035;  533.399; -226.293;  -86.471
403.326;  729.315; -366.292; -384.474
403.617;  562.938;  204.701;  165.539
403.907;  226.910; -593.283; -679.490
404.198; 2633.444; -545.307; -599.446
404.489; 6867.417; -618.283; -588.491
404.779; 2478.706; -618.302; -660.456
405.070;  293.279;  -67.304; -174.451
405.360;  381.601; -259.293; -238.472
405.651;  480.220;  125.699;   98.542
405.942;  262.276;  209.714;  127.516
406.232;  342.094; -432.285; -413.487
406.523;  766.793;  641.706;  758.530
406.813;  114.479; -579.286; -644.484
407.104;  508.809;  261.708;  144.527
407.394;  204.240; -604.299; -591.462
407.685;  259.893;  336.715;  222.513
407.975;   32.715; -400.283; -382.490
408.265;  170.541; -134.289; -190.478
408.556;   67.120; -472.291; -459.475
408.846;  298.494;  474.706;  429.530
409.137;  113.452;   -1.288; -216.480
409.427;   10.794; -193.285; -271.487
409.717;  -18.680; -776.273; -692.508
410.007;  183.686;    4.715; -170.486
410.298;   90.684; -360.295; -342.469
410.588;   53.190; -495.285; -510.486
410.878;  -44.734; -792.287; -873.482
411.168;  111.749; -481.298; -478.463
411.459;  139.808; -295.283; -242.489
411.749;    7.918; -609.292; -507.474
412.039;    5.250; -755.289; -386.480
412.329;  286.768;   40.722;  132.501
412.619;  211.579;  -62.286; -148.485
412.909;  534.745;  639.711;  594.521
413.199;  405.445; -130.280; -251.495
413.490;  604.033;  521.710;  352.523
413.780;   72.350;-1013.279; -913.496
414.070;  428.592;  -46.276;  235.497
414.360;  399.063; -729.278; -666.498
414.650;  416.861; -726.288; -688.482
414.940;  556.549; -538.280; -441.496
415.230; 1095.957;   50.712;   74.519
415.520; 7063.258;  155.730;   66.486
415.809;26696.528; -305.281; -125.493
416.099;21342.680; -388.277; -229.501
416.389; 5758.206;  435.726;  236.494
416.679; 3474.437;   91.738;   85.473
416.969;  603.271; -527.287; -503.483
417.259;  734.052;  341.721;  171.503
417.549;  901.026;  522.718;  318.508
417.838; 1877.580; -205.268; -147.518
418.128; 6035.140;  650.710;  492.522
418.418; 4989.128; -491.272; -579.509
418.708; 3494.506;    9.726;  -48.506
418.997;12598.501; -474.275; -480.505
419.287;13136.515; -733.273; -790.507
419.577;12627.307; -160.283; -123.489
419.866;40770.677; -588.277; -498.501
420.156;42477.253; -242.270;  -55.513
420.446; 8296.027; -112.263;  -26.526
420.735; 1077.846; -376.271; -446.512
421.025; 1336.162; 1830.722;  315.502
421.314;  977.144; -203.271; -226.512
421.604; 2146.470;   89.732;  233.484
421.893; 1145.139; -705.271; -602.511
422.183;  264.928; -487.263; -461.526
422.472;  489.741;  -36.271; -107.511
422.762;  528.702; -416.266; -379.521
423.051;  228.192; -916.276; -916.503
423.341;  362.117; -491.273; -439.507
423.630;  532.109; -121.265;   15.477
423.919;  458.000;   58.725;   49.495
424.209;  453.934;  -31.263;   56.473
424.498;  602.876;   68.732;  161.483
424.787; 1270.784; -535.267; -601.518
425.077; 3847.507;   34.735;   29.478
425.366; 5758.641; -734.262; -744.528
425.655;11449.618;  639.727;  259.493
425.945;22360.502; -313.247; -268.554
426.234;13073.570;  117.741;  300.467
426.523; 5582.176;  -86.259; -350.534
426.812; 7865.197;  107.734;  159.480
427.101;11430.466; -127.269; -323.515
427.390;14781.058;  -55.270;  -86.514
427.680; 3752.301; -624.257; -411.538
427.969;  615.414; -330.255; -301.540
428.258;  360.790; -385.257; -477.536
428.547;  789.133;  449.728;  397.490
428.836; 1739.634; -421.253; -398.543
429.125; 2455.078; -199.259;  -72.534
429.414; 1064.562; -330.251; -294.548
429.703; 3648.862; -231.251; -213.548
429.992;10137.167; -938.250; -828.549
430.281; 6950.319; -397.264; -331.524
430.570;  833.651;  -21.252;   32.454
430.859;  788.975;  279.741;  352.466
431.148;  683.097;  636.752;  631.446
431.437;  473.050;  391.748;  367.454
431.725;  180.192; -544.257; -481.536
432.014;  105.543; -845.253; -756.545
432.303;  495.691; -149.239; -105.569
432.592;  718.027; -460.263; -178.525
432.881; 1171.398; -601.248; -437.554
433.169; 6883.115; -343.255;  -61.540
433.458;13572.733;  445.765;  540.424
433.747; 5935.148; -397.261; -289.529
434.036; 1113.861; -275.242; -280.564
434.324; 2412.882; -395.249; -379.551
434.613; 4003.653;   40.757;  159.437
434.902; 1548.579;  333.760;  439.433
435.190;  833.890;   75.761;  295.431
435.479;  457.430;  -52.245;   83.441
435.767;  141.240; -411.244; -427.561
436.056;  277.556; -340.242; -294.563
436.345;  365.082; -372.240; -223.568
436.633;  516.776;   60.750;  383.450
436.922;  437.485;  208.760;  414.432
437.210;  927.521; -194.236;    1.426
437.499; 2956.131; -583.235; -432.576
437.787; 3251.620; -339.236;  -10.574
438.075;  850.497;   56.761;  162.430
438.364; 1035.500;  -44.238;  250.429
438.652;  650.730; -286.226; -138.592
438.941;  241.585;    3.770;  269.415
439.229;   -8.853; -665.252; -466.545
439.517;   67.041; -160.234;  -85.577
439.806;  -34.750; -501.225; -290.595
440.094;  286.351;  377.766;  650.421
440.382;  157.556; -653.233; -302.580
440.670;  295.330; -361.235; -285.576
440.959;   11.371; -347.223; -170.599
441.247;   99.000; -151.229; -109.587
441.535;  111.439; -266.235;   31.423
441.823;  -26.553; -497.234; -305.578
442.111;  308.705;  173.771;  327.412
442.400;  755.029; -628.245; -335.559
442.688; 2162.150; -111.234; -620.579
442.976; 1568.281; -786.213; -450.617
443.264;  104.758; -324.224; -364.597
443.552;   95.331; -258.226;   51.408
443.840;  312.938;  602.765;  876.423
444.128;  226.954;  265.767;  269.420
444.416;  -32.392; -694.228; -312.588
444.704;    4.408; -465.219;  -92.605
444.992;  120.235;   -0.226;  240.407
445.280;   36.686; -517.230;  -94.585
445.568;   24.785; -694.212; -396.618
445.856;  515.988; -174.221;  357.398
446.143; 1188.104;  -54.220;   -7.604
446.431;  955.713;  -25.228;  625.411
446.719;  406.832;  489.783;  675.391
447.007;  308.879;  481.769;  705.416
447.295;  289.168;  597.777;  871.402
447.583;   90.497; -464.229;  -34.587
447.870;  168.584; -434.221; -202.601
448.158;  570.885; -104.230;  129.415
448.446;  416.805; -800.219; -338.604
448.733;  221.460;   13.776;  269.403
449.021;  318.284;   60.788;  341.382
449.309;  251.503; -296.210;  208.379
449.596;  304.227;  128.783;   59.392
449.884;  139.076; -571.222; -325.600
450.172;   76.319; -756.227; -406.590
450.459;  608.560;  645.786;  780.387
450.747; 2533.626; -411.218; -147.608
451.034; 8128.214;  493.772;  889.411
451.322; 6727.563; -413.214; -170.614
451.609;  681.662;  292.777;  508.403
451.897;  635.782; -550.203; -183.634
452.184; 1893.068; -622.223; -400.598
452.472; 1967.330;   97.792;  269.375
452.759;  518.906;  512.781;  864.395
453.047;  124.381; -407.212; -125.617
453.334;  107.115; -732.219; -216.606
453.621;   85.566; -438.214; -161.615
453.909;  173.372;   13.796;  384.368
454.196;  101.928; -299.199; -123.641
454.483;  314.198;  317.798;  540.364
454.771;  146.834; -215.208;  196.374
455.058;   47.838; -316.207;  102.374
455.345;  172.597;   71.807;  344.347
455.632;   90.342; -128.207;  235.373
455.919;   79.656;  -82.196;  182.354
456.207; -122.466; -774.198; -450.642
456.494;  -41.287; -475.200;  -66.639
456.781;  -16.108; -399.202; -198.635
457.068;  120.350; -253.206;  -29.628
457.355;  -63.149; -698.206; -401.629
457.642;  -45.542; -552.205; -290.630
457.929;  -74.015; -778.194; -417.651
458.216;   19.282; -575.212; -354.617
458.503;  279.291; -173.193;  -19.652
458.790;  188.131; -864.208; -630.625
459.077;  316.498;  -77.202;  110.364
459.364;  884.977; -350.195; -210.649
459.651; 1884.047;  -46.206;  220.372
459.938;  873.819; -864.209; -665.623
460.225;  254.302;  132.799;  276.363
460.512; -142.447; -836.197; -688.645
460.799;  137.524;  -32.218;  320.392
461.086;   55.618; -370.200; -251.640
461.372;   44.634; -509.198; -279.642
461.659;  166.258; -165.196;  108.354
461.946;   80.390; -445.193;  -54.651
462.233;  442.415;  842.800;  888.361
462.519;  324.412; -814.201; -464.639
462.806; 1048.853; -768.197; -497.645
463.093;  972.015; -445.191;  -66.656
463.380; -118.433; -920.186; -824.664
463.666;   77.855; -259.197;  -18.646
463.953;  135.970; -406.195; -243.648
464.239;  217.170; -173.195;  -77.648
464.526;  573.684;  413.806;  743.350
464.813;  406.230; -565.190; -304.658
465.099;  549.291;  606.807;  607.348
465.386;  594.596;  903.807;  921.348
465.672;   -1.947; -694.197; -522.645
465.959;   34.852; -598.188; -520.662
466.245;   11.196; -468.193; -359.652
466.532;  171.468; -109.195;   63.352
466.818;   88.266; -357.186; -216.664
467.104;  -24.584; -488.182; -415.672
467.391;  -83.268; -628.189; -459.658
467.677;   64.471; -289.186;    9.335
467.964;    6.340; -682.189; -471.660
468.250;  114.474; -331.186; -160.665
468.536;  138.834;   90.811;  180.341
468.822; -123.011; -821.184; -574.668
469.109;  246.917;  351.827;  471.311
469.395;  331.008;  729.808;  787.346
469.681;  253.237;   46.811;  156.341
469.967; 1438.143; -699.188; -382.660
470.254; 2843.853; -494.188; -306.662
470.540; 1940.556; -601.196; -476.646
470.826;  281.330; -488.181; -397.675
471.112;  432.593;  288.816;  113.331
471.398;  139.799; -253.183;  -58.670
471.684;   33.565; -626.177; -447.680
471.970;  -98.565; -918.180; -981.675
472.256;   18.607; -521.192; -441.654
472.542;   -5.570; -499.171; -434.691
472.828;  -45.389; -743.182; -607.672
473.114;    2.684; -380.166; -283.700
473.400;  -13.614; -504.175; -293.684
473.686;   16.492; -452.166; -400.701
473.972;   92.104; -230.174; -131.687
474.258; -143.583; -925.173; -843.689
474.544;  241.555; -183.178;   -2.679
474.830;  383.588;  -65.175;   45.316
475.116;  543.532; -123.190; -196.658
475.401;  665.438; -558.180; -467.676
475.687;  197.636; -725.180; -718.676
475.973;  -15.379; -673.181; -770.673
476.259;  397.491;  736.825;  764.315
476.544;  441.175; -539.176; -437.682
476.830;  957.525; -398.172; -322.690
477.116;  804.274; -430.177; -336.682
477.401;  287.737;  346.820;  358.324
477.687;  -65.714; -289.175; -405.684
477.973;   95.625;   21.819;   28.326
478.258;  -11.282; -448.163; -348.706
478.544;   81.481;   21.815;   61.334
478.829; -120.563; -818.171; -738.692
479.115;  -64.875; -749.172; -651.690
479.401;  -51.202; -444.174; -449.686
479.686;   47.636; -253.180;  -74.676
479.972; -110.739; -886.178; -776.680
480.257;   84.886; -258.166;  -65.700
480.542;  -39.958; -614.170; -469.693
480.828;  490.084; 1288.824; 1392.317
481.113;  -84.719; -464.176; -426.683
481.399;   14.347; -236.161; -202.711
481.684; -103.415; -620.166; -462.700
481.969;   36.764; -158.159;  -73.713
482.255;  -44.745; -439.169; -285.695
482.540;  -20.138; -569.178; -441.680
482.825;    6.960; -395.187; -404.663
483.110;  127.959;  -85.169; -105.696
483.396;  180.791; -840.157; -652.718
483.681;  694.904;  543.826;  730.313
483.966;  161.756; -696.160; -700.712
484.251;    0.103; -404.174; -310.687
484.536;   -8.901; -356.165; -378.703
484.822;  -11.393; -205.173; -218.687
485.107;  -68.262; -599.152; -502.726
485.392;  259.706;  662.836;  541.296
485.677;  113.472;  354.832;  163.302
485.962;  190.188;  160.843;  270.283
486.247;  139.128;  -14.162;   -8.707
486.532;   78.588; -178.166; -325.701
486.817;  314.240;  381.839;  431.291
487.102;   94.517; -453.154; -514.722
487.387;  743.693; -637.156; -652.718
487.672; 1294.012; -154.164;  -38.705
487.957;  827.749; -394.160; -286.711
488.241;  240.259; -290.150; -314.729
488.526;  941.240; -280.152; -148.726
488.811; 1302.464; -881.177; -818.680
489.096;  994.120; -666.154; -702.723
489.381;  605.635;    3.847;  162.275
489.666;  414.447; -428.161; -510.710
489.950;  349.524;  558.846;  627.277
490.235;  -62.247; -480.151; -458.728
490.520;  -93.854; -756.161; -723.710
490.804; -135.104; -827.156; -736.719
491.089;   -3.221; -469.149; -299.732
491.374;   53.911; -132.164;  -75.704
491.658;  -42.007; -817.147; -717.735
491.943;  179.445; -657.152; -609.727
492.227;  338.412; -178.155;  -38.721
492.512;   40.187; -294.157; -341.717
492.797; -147.929; -713.149; -716.731
493.081; -122.404; -588.147; -598.735
493.366;  -95.652; -751.161; -635.711
493.650;  392.362;  831.859;  917.254
493.935;    9.992; -648.147; -447.734
494.219; -123.754; -778.142; -687.743
494.503; -120.135; -585.150; -487.730
494.788;   68.677;   46.842;   74.285
495.072;  176.261;  184.850;  434.271
495.356;  199.783; -463.148; -343.733
495.641;  530.404; -812.146; -736.736
495.925;  496.002; -976.156; -903.719
496.209;    1.178; -599.149; -451.732
496.494;  -94.953; -763.142; -544.744
496.778;   -1.583; -364.154; -360.722
497.062; -131.599; -819.156; -627.719
497.346; -127.549; -869.160; -640.711
497.631;  268.487;  580.852;  560.266
497.915;  122.817;  -64.145;  175.261
498.199;   89.291; -341.157; -277.718
498.483;   40.538; -562.152; -508.725
498.767;  298.762;  301.850;  300.271
499.051;  245.175; -126.149; -100.732
499.335;  -28.827; -693.149; -739.731
499.619;  -56.412; -381.129; -423.767
499.903;   36.810; -272.155;  -65.721
500.187;   19.126; -588.153; -316.724
500.471;  -36.256; -796.152; -595.727
500.755;  164.646;   62.839;  -96.710
501.039;   24.811; -270.155; -357.721
501.323;  164.364;  -21.141;  264.254
501.607;   43.018; -447.163; -503.706
501.891;  -39.107; -607.156; -512.718
502.174;  -88.269; -726.144; -585.741
502.458;  110.149;   89.849;  370.273
502.742;   61.194; -180.138; -191.751
503.026;   88.991; -412.147; -254.734
503.310;  188.863; -437.159; -375.713
503.593;  118.394; -464.147; -325.735
503.877;  165.644; -232.133; -156.760
504.161;  257.829;    2.847;  -50.724
504.444;  101.780; -841.158; -710.716
504.728;  477.110; -487.164; -522.704
505.012;  801.458; -257.150;  -76.729
505.295;  666.647; -417.161; -212.711
505.579;  616.001; -256.156; -496.719
505.862;  882.613; -555.145; -333.738
506.146;  806.266; -681.159; -758.714
506.429;  608.466;  568.841;  461.286
506.713;   45.055; -732.151; -667.728
506.996;  452.616;   90.846;  295.278
507.280;  351.204; -633.165; -474.703
507.563;  286.409; -469.155; -261.721
507.847;  104.227; -423.153; -112.724
508.130;   92.948; -665.161; -456.711
508.413;  102.081; -758.167; -577.700
508.697;  309.181; -151.167;   12.300
508.980;  148.129; -422.153; -312.724
509.263;  -58.396; -466.155; -450.720
509.547;   92.458; -124.150;   82.271
509.830;   95.551; -172.160;  140.289
510.113;  175.901;  128.844;  298.281
510.396;   32.236; -530.152; -300.725
510.680;  247.615; -818.145; -812.738
510.963; 1004.322;  184.846;  180.277
511.246;  796.467; -493.150; -357.730
511.529;  360.721; -482.145;  -83.739
511.812;  421.440; -250.134;   10.241
512.095;  279.051; -740.151; -396.728
512.378;  100.499; -317.147; -245.736
512.661;   -6.396; -703.137; -623.753
512.944;  -54.151; -750.142; -637.744
513.227;   83.600; -170.137; -171.752
513.510;    9.131; -479.144; -671.741
513.793;    5.870; -485.140; -435.747
514.076;  211.314;  -43.127;  -39.771
514.359;  126.479; -294.149; -135.732
514.642;   69.953; -442.142; -567.744
514.925;  985.368;  581.860;  561.253
515.208; 1043.735; -498.134; -443.758
515.491;  757.953; -276.133; -182.761
515.773;  470.236; -410.143; -337.742
516.056; 2490.812;  249.864;  409.246
516.339; 3230.316; -754.136; -652.755
516.622; 2590.364; -518.150; -488.730
516.904; 1956.045;  882.857;  975.257
517.187;  921.299; -730.138; -523.752
517.470;  485.743; -568.143; -510.743
517.752;  470.420; -624.136; -470.756
518.035;  355.083; -708.139; -725.749
518.318;  345.117; -799.136; -744.755
518.600; 2748.857; -300.132; -325.762
518.883; 3532.852;  310.858;   88.256
519.165; 1837.490; -585.138; -426.751
519.448;  524.357;  -61.132;  -19.762
519.730;  219.523; -573.126; -415.773
520.013;  522.348;  588.867;  664.240
520.295; 1307.842;  -94.134;  -15.759
520.578; 2740.573; -335.131; -305.764
520.860; 2978.757; -254.132;   56.238
521.143; 1575.323; -763.135; -584.756
521.425;  635.839; -251.125; -279.775
521.707;  859.714; -622.127; -380.771
521.990; 2185.015; -199.127;  167.229
522.272; 2252.772; -116.140;   -4.748
522.554; 1160.337; -237.143; -157.742
522.836;  491.739;  -24.134;   99.241
523.119;  257.190; -496.148; -189.734
523.401;  183.381; -448.130; -314.766
523.683;   36.304; -865.137; -693.753
523.965;  394.596;  408.862;  260.248
524.247;  350.766;   54.878;  170.220
524.529;  207.842; -451.134; -367.759
524.812;  480.684;   -3.130;  191.234
525.094;  972.895; -773.138; -631.751
525.376; 1572.151; -143.124;   78.223
525.658;  960.013; -441.136; -339.754
525.940;  -37.631; -805.131; -671.764
526.222;   32.717; -188.136;  -88.755
526.504;  181.966; -190.131;   32.237
526.786;  223.845; -960.133; -647.760
527.068;  467.357; -124.123;  -67.778
527.349;  148.609; -865.137; -774.754
527.631;  165.056; -137.132;   22.238
527.913;  153.113; -664.127; -450.771
528.195;  109.931; -761.125; -639.774
528.477;  304.036;  -93.134;  -30.758
528.759;  113.483; -648.130; -522.766
529.040;    7.256; -569.123; -293.778
529.322;   70.234; -235.125;  -10.774
529.604;  221.886;  -47.130;   93.233
529.886;  112.323; -546.126; -302.773
530.167;  196.076;  232.870;  192.235
530.449;   55.198;    1.853;   63.265
530.731;  -23.235; -572.122; -459.779
531.012;   18.790; -513.120; -216.784
531.294;   66.239; -118.116;  -43.792
531.575;  262.139;  290.875;  538.225
531.857;   43.329; -548.135; -266.757
532.138;  189.563; -113.141;   40.254
532.420;  312.025;  294.865;  403.244
532.701;  241.548; -722.133; -751.760
532.983;  530.252;  232.867;  182.239
533.264;  195.420; -243.126;  175.228
533.546;  -60.383; -491.136; -508.755
533.827;   81.244;  173.867;   -1.759
534.109;   48.729; -352.135;  -80.757
534.390;   99.061; -725.132; -582.762
534.671;  336.924; -270.135;  -82.756
534.953;  116.959; -751.123; -611.779
535.234;   20.420; -426.117; -255.789
535.515; -152.299; -891.119; -735.785
535.796;  -44.792; -431.128; -193.770
536.078; -248.150;-1050.124; -904.777
536.359;   23.360;  -22.123;    3.221
536.640;  -34.568; -480.125; -197.774
536.921;  241.793;  225.871;  143.232
537.202;  481.791;  -87.138;  -16.751
537.483;  603.272;  251.869;  377.236
537.764;  213.876;   17.870;   98.235
538.045;  -77.365; -543.134; -371.758
538.326; -121.505; -596.129; -447.768
538.607;  -41.984; -686.127; -476.771
538.888;  211.579;   98.879;    5.218
