
Integration time [ms]: 100.000
Averaging Nr. [scans]: 40
Smoothing Nr. [pixels]: 0
Data measured with spectrometer [name]: 2101013U2
Wave   ;Sample   ;Dark     ;Reference
[nm]   ;[counts] ;[counts] ;[counts] 

394.013;   69.025; -450.257; -315.536
394.305;  245.723; -461.258; -419.536
394.596; 1039.846; -676.269; -527.514
394.887; 2564.913; -796.268; -654.518
395.178;  988.718;  145.736;   11.476
395.470;   86.479; -210.263; -356.526
395.761;  215.728;  305.734;  394.479
396.052;  359.623; -545.284; -306.489
396.343;  355.117; -557.276; -454.503
396.634;  139.336; -200.279; -290.497
396.926;  144.935; -618.268; -565.517
397.217;  127.471;   11.725;  -17.504
397.508;   69.562; -366.273; -154.507
397.799;   73.511; -555.279; -571.497
398.090;   12.180; -973.280; -902.495
398.381;  108.999;   11.708;  -11.473
398.672;  -10.075; -585.292; -742.473
398.963;   76.242; -348.279; -373.498
399.254;  121.334;   54.709; -209.475
399.545;  -18.426;-1017.266; -883.520
399.836;   79.506; -407.277; -343.501
400.127;   74.350; -205.295; -209.468
400.418;   67.456; -423.274; -392.506
400.709;   71.493; -359.281; -333.493
401.000;   45.988; -268.291; -309.476
401.290;  108.588;  225.698;  115.545
401.581;   83.256; -166.286; -228.485
401.872;   35.473; -542.298; -486.462
402.163;   48.118; -313.296; -252.467
402.454;  103.835; -123.291; -163.475
402.744;   88.309; -844.297; -813.465
403.035;  519.465; -226.293;  -86.471
403.326;  672.578; -366.292; -384.474
403.617;  410.392;  204.701;  165.539
403.907;  244.104; -593.283; -679.490
404.198; 2275.493; -545.307; -599.446
404.489; 6043.183; -618.283; -588.491
404.779; 2104.766; -618.302; -660.456
405.070;  236.570;  -67.304; -174.451
405.360;  340.592; -259.293; -238.472
405.651;  371.702;  125.699;   98.542
405.942;  213.226;  209.714;  127.516
406.232;  313.016; -432.285; -413.487
406.523;  572.435;  641.706;  758.530
406.813;  113.353; -579.286; -644.484
407.104;  403.773;  261.708;  144.527
407.394;  209.494; -604.299; -591.462
407.685;  164.690;  336.715;  222.513
407.975;   58.982; -400.283; -382.490
408.265;  125.624; -134.289; -190.478
408.556;   84.782; -472.291; -459.475
408.846;  178.161;  474.706;  429.530
409.137;  103.257;   -1.288; -216.480
409.427;   62.590; -193.285; -271.487
409.717;   44.815; -776.273; -692.508
410.007;  153.509;    4.715; -170.486
410.298;   84.478; -360.295; -342.469
410.588;   78.113; -495.285; -510.486
410.878;   34.593; -792.287; -873.482
411.168;  137.425; -481.298; -478.463
411.459;  115.677; -295.283; -242.489
411.749;   69.005; -609.292; -507.474
412.039;   60.456; -755.289; -386.480
412.329;  203.974;   40.722;  132.501
412.619;  203.704;  -62.286; -148.485
412.909;  378.702;  639.711;  594.521
413.199;  356.531; -130.280; -251.495
413.490;  434.642;  521.710;  352.523
413.780;  140.860;-1013.279; -913.496
414.070;  326.568;  -46.276;  235.497
414.360;  405.395; -729.278; -666.498
414.650;  430.189; -726.288; -688.482
414.940;  523.959; -538.280; -441.496
415.230;  923.161;   50.712;   74.519
415.520; 5861.571;  155.730;   66.486
415.809;23181.142; -305.281; -125.493
416.099;17807.608; -388.277; -229.501
416.389; 4903.429;  435.726;  236.494
416.679; 2862.633;   91.738;   85.473
416.969;  497.948; -527.287; -503.483
417.259;  468.861;  341.721;  171.503
417.549;  694.166;  522.718;  318.508
417.838; 1593.962; -205.268; -147.518
418.128; 5191.273;  650.710;  492.522
418.418; 4316.671; -491.272; -579.509
418.708; 2981.754;    9.726;  -48.506
418.997;10938.750; -474.275; -480.505
419.287;11421.461; -733.273; -790.507
419.577;10673.051; -160.283; -123.489
419.866;35397.706; -588.277; -498.501
420.156;36682.767; -242.270;  -55.513
420.446; 6755.850; -112.263;  -26.526
420.735;  943.636; -376.271; -446.512
421.025;  877.769; 1830.722;  315.502
421.314;  765.009; -203.271; -226.512
421.604; 1704.505;   89.732;  233.484
421.893; 1001.305; -705.271; -602.511
422.183;  250.350; -487.263; -461.526
422.472;  403.382;  -36.271; -107.511
422.762;  488.730; -416.266; -379.521
423.051;  254.868; -916.276; -916.503
423.341;  330.588; -491.273; -439.507
423.630;  451.811; -121.265;   15.477
423.919;  398.450;   58.725;   49.495
424.209;  386.256;  -31.263;   56.473
424.498;  501.210;   68.732;  161.483
424.787; 1075.541; -535.267; -601.518
425.077; 3329.485;   34.735;   29.478
425.366; 4948.061; -734.262; -744.528
425.655; 9487.414;  639.727;  259.493
425.945;19682.414; -313.247; -268.554
426.234;10980.059;  117.741;  300.467
426.523; 4879.264;  -86.259; -350.534
426.812; 6728.951;  107.734;  159.480
427.101; 9681.477; -127.269; -323.515
427.390;12497.121;  -55.270;  -86.514
427.680; 3118.583; -624.257; -411.538
427.969;  532.019; -330.255; -301.540
428.258;  333.225; -385.257; -477.536
428.547;  578.600;  449.728;  397.490
428.836; 1405.235; -421.253; -398.543
429.125; 2045.266; -199.259;  -72.534
429.414;  883.682; -330.251; -294.548
429.703; 2982.582; -231.251; -213.548
429.992; 8902.336; -938.250; -828.549
430.281; 5836.668; -397.264; -331.524
430.570;  609.323;  -21.252;   32.454
430.859;  612.463;  279.741;  352.466
431.148;  478.210;  636.752;  631.446
431.437;  309.897;  391.748;  367.454
431.725;  161.401; -544.257; -481.536
432.014;  113.217; -845.253; -756.545
432.303;  410.984; -149.239; -105.569
432.592;  676.725; -460.263; -178.525
432.881; 1055.911; -601.248; -437.554
433.169; 5805.670; -343.255;  -61.540
433.458;11775.292;  445.765;  540.424
433.747; 5052.567; -397.261; -289.529
434.036;  948.185; -275.242; -280.564
434.324; 2016.998; -395.249; -379.551
434.613; 3522.979;   40.757;  159.437
434.902; 1231.649;  333.760;  439.433
435.190;  705.108;   75.761;  295.431
435.479;  415.611;  -52.245;   83.441
435.767;  138.569; -411.244; -427.561
436.056;  261.206; -340.242; -294.563
436.345;  373.552; -372.240; -223.568
436.633;  386.568;   60.750;  383.450
436.922;  291.604;  208.760;  414.432
437.210;  749.133; -194.236;    1.426
437.499; 2443.191; -583.235; -432.576
437.787; 2703.707; -339.236;  -10.574
438.075;  647.088;   56.761;  162.430
438.364;  901.566;  -44.238;  250.429
438.652;  545.344; -286.226; -138.592
438.941;  152.959;    3.770;  269.415
439.229;   31.045; -665.252; -466.545
439.517;   39.074; -160.234;  -85.577
439.806;   20.110; -501.225; -290.595
440.094;  189.581;  377.766;  650.421
440.382;  229.310; -653.233; -302.580
440.670;  255.915; -361.235; -285.576
440.959;   30.352; -347.223; -170.599
441.247;   90.145; -151.229; -109.587
441.535;  109.322; -266.235;   31.423
441.823;   65.004; -497.234; -305.578
442.111;  192.299;  173.771;  327.412
442.400;  627.835; -628.245; -335.559
442.688; 1737.006; -111.234; -620.579
442.976; 1292.588; -786.213; -450.617
443.264;  144.116; -324.224; -364.597
443.552;  122.670; -258.226;   51.408
443.840;  178.696;  602.765;  876.423
444.128;  118.334;  265.767;  269.420
444.416;    9.877; -694.228; -312.588
444.704;   32.981; -465.219;  -92.605
444.992;   75.973;   -0.226;  240.407
445.280;   70.134; -517.230;  -94.585
445.568;   46.442; -694.212; -396.618
445.856;  424.865; -174.221;  357.398
446.143;  956.627;  -54.220;   -7.604
446.431;  770.580;  -25.228;  625.411
446.719;  270.525;  489.783;  675.391
447.007;  208.829;  481.769;  705.416
447.295;  197.024;  597.777;  871.402
447.583;  101.893; -464.229;  -34.587
447.870;  167.962; -434.221; -202.601
448.158;  499.583; -104.230;  129.415
448.446;  381.628; -800.219; -338.604
448.733;  189.393;   13.776;  269.403
449.021;  266.291;   60.788;  341.382
449.309;  205.056; -296.210;  208.379
449.596;  226.246;  128.783;   59.392
449.884;  172.706; -571.222; -325.600
450.172;  142.561; -756.227; -406.590
450.459;  415.672;  645.786;  780.387
450.747; 2205.520; -411.218; -147.608
451.034; 7064.956;  493.772;  889.411
451.322; 5783.450; -413.214; -170.614
451.609;  509.319;  292.777;  508.403
451.897;  552.268; -550.203; -183.634
452.184; 1707.249; -622.223; -400.598
452.472; 1592.677;   97.792;  269.375
452.759;  365.754;  512.781;  864.395
453.047;  133.664; -407.212; -125.617
453.334;  102.787; -732.219; -216.606
453.621;  106.977; -438.214; -161.615
453.909;  154.335;   13.796;  384.368
454.196;  117.155; -299.199; -123.641
454.483;  220.856;  317.798;  540.364
454.771;  137.630; -215.208;  196.374
455.058;   61.234; -316.207;  102.374
455.345;   98.909;   71.807;  344.347
455.632;   86.437; -128.207;  235.373
455.919;   56.927;  -82.196;  182.354
456.207;  -51.040; -774.198; -450.642
456.494;   -2.757; -475.200;  -66.639
456.781;   27.177; -399.202; -198.635
457.068;   67.668; -253.206;  -29.628
457.355;   -3.306; -698.206; -401.629
457.642;   -0.425; -552.205; -290.630
457.929;   13.051; -778.194; -417.651
458.216;   55.639; -575.212; -354.617
458.503;  221.430; -173.193;  -19.652
458.790;  213.053; -864.208; -630.625
459.077;  276.207;  -77.202;  110.364
459.364;  746.869; -350.195; -210.649
459.651; 1579.041;  -46.206;  220.372
459.938;  742.694; -864.209; -665.623
460.225;  160.885;  132.799;  276.363
460.512;  -49.726; -836.197; -688.645
460.799;  118.069;  -32.218;  320.392
461.086;   73.722; -370.200; -251.640
461.372;   60.160; -509.198; -279.642
461.659;  133.603; -165.196;  108.354
461.946;   79.004; -445.193;  -54.651
462.233;  237.295;  842.800;  888.361
462.519;  347.492; -814.201; -464.639
462.806;  944.825; -768.197; -497.645
463.093;  846.074; -445.191;  -66.656
463.380;  -31.260; -920.186; -824.664
463.666;   68.327; -259.197;  -18.646
463.953;   89.264; -406.195; -243.648
464.239;  190.564; -173.195;  -77.648
464.526;  400.849;  413.806;  743.350
464.813;  394.936; -565.190; -304.658
465.099;  356.730;  606.807;  607.348
465.386;  352.084;  903.807;  921.348
465.672;   46.225; -694.197; -522.645
465.959;   33.578; -598.188; -520.662
466.245;   14.009; -468.193; -359.652
466.532;  106.261; -109.195;   63.352
466.818;   85.715; -357.186; -216.664
467.104;   17.804; -488.182; -415.672
467.391;  -25.338; -628.189; -459.658
467.677;   43.518; -289.186;    9.335
467.964;    1.194; -682.189; -471.660
468.250;   75.696; -331.186; -160.665
468.536;   79.539;   90.811;  180.341
468.822;  -24.043; -821.184; -574.668
469.109;  157.534;  351.827;  471.311
469.395;  185.918;  729.808;  787.346
469.681;  193.167;   46.811;  156.341
469.967; 1180.146; -699.188; -382.660
470.254; 2512.529; -494.188; -306.662
470.540; 1640.577; -601.196; -476.646
470.826;  218.565; -488.181; -397.675
471.112;  288.211;  288.816;  113.331
471.398;   95.890; -253.183;  -58.670
471.684;   39.918; -626.177; -447.680
471.970;   13.519; -918.180; -981.675
472.256;   29.917; -521.192; -441.654
472.542;    6.969; -499.171; -434.691
472.828;   19.775; -743.182; -607.672
473.114;   21.312; -380.166; -283.700
473.400;   32.559; -504.175; -293.684
473.686;   44.394; -452.166; -400.701
473.972;   54.874; -230.174; -131.687
474.258;  -28.616; -925.173; -843.689
474.544;  186.385; -183.178;   -2.679
474.830;  269.911;  -65.175;   45.316
475.116;  423.112; -123.190; -196.658
475.401;  570.796; -558.180; -467.676
475.687;  193.470; -725.180; -718.676
475.973;   20.958; -673.181; -770.673
476.259;  260.663;  736.825;  764.315
476.544;  368.976; -539.176; -437.682
476.830;  753.366; -398.172; -322.690
477.116;  622.500; -430.177; -336.682
477.401;  139.271;  346.820;  358.324
477.687;  -18.541; -289.175; -405.684
477.973;   43.236;   21.819;   28.326
478.258;    3.539; -448.163; -348.706
478.544;   57.076;   21.815;   61.334
478.829;  -58.000; -818.171; -738.692
479.115;  -41.785; -749.172; -651.690
479.401;  -11.306; -444.174; -449.686
479.686;   44.094; -253.180;  -74.676
479.972;  -26.485; -886.178; -776.680
480.257;   38.564; -258.166;  -65.700
480.542;   -8.696; -614.170; -469.693
480.828;  232.508; 1288.824; 1392.317
481.113;  -34.695; -464.176; -426.683
481.399;   -8.488; -236.161; -202.711
481.684;  -67.387; -620.166; -462.700
481.969;   27.400; -158.159;  -73.713
482.255;   10.239; -439.169; -285.695
482.540;   10.965; -569.178; -441.680
482.825;    0.435; -395.187; -404.663
483.110;   82.842;  -85.169; -105.696
483.396;  154.622; -840.157; -652.718
483.681;  445.049;  543.826;  730.313
483.966;  122.069; -696.160; -700.712
484.251;    0.998; -404.174; -310.687
484.536;   -0.076; -356.165; -378.703
484.822;   19.976; -205.173; -218.687
485.107;  -34.266; -599.152; -502.726
485.392;  144.954;  662.836;  541.296
485.677;   69.102;  354.832;  163.302
485.962;  110.044;  160.843;  270.283
486.247;   89.621;  -14.162;   -8.707
486.532;   44.440; -178.166; -325.701
486.817;  170.756;  381.839;  431.291
487.102;  124.167; -453.154; -514.722
487.387;  585.048; -637.156; -652.718
487.672; 1027.984; -154.164;  -38.705
487.957;  665.764; -394.160; -286.711
488.241;  199.376; -290.150; -314.729
488.526;  660.160; -280.152; -148.726
488.811; 1076.942; -881.177; -818.680
489.096;  805.420; -666.154; -702.723
489.381;  464.457;    3.847;  162.275
489.666;  334.912; -428.161; -510.710
489.950;  185.348;  558.846;  627.277
490.235;  -31.779; -480.151; -458.728
490.520;  -32.439; -756.161; -723.710
490.804;  -51.525; -827.156; -736.719
491.089;   10.316; -469.149; -299.732
491.374;   21.558; -132.164;  -75.704
491.658;    2.327; -817.147; -717.735
491.943;  184.040; -657.152; -609.727
492.227;  283.838; -178.155;  -38.721
492.512;   56.069; -294.157; -341.717
492.797;  -57.290; -713.149; -716.731
493.081;  -61.545; -588.147; -598.735
493.366;  -34.838; -751.161; -635.711
493.650;  200.382;  831.859;  917.254
493.935;   20.202; -648.147; -447.734
494.219;  -44.305; -778.142; -687.743
494.503;  -45.995; -585.150; -487.730
494.788;   36.485;   46.842;   74.285
495.072;  115.102;  184.850;  434.271
495.356;  163.019; -463.148; -343.733
495.641;  475.362; -812.146; -736.736
495.925;  460.555; -976.156; -903.719
496.209;   48.215; -599.149; -451.732
496.494;  -51.605; -763.142; -544.744
496.778;   12.392; -364.154; -360.722
497.062;  -56.520; -819.156; -627.719
497.346;  -32.085; -869.160; -640.711
497.631;  127.823;  580.852;  560.266
497.915;   83.047;  -64.145;  175.261
498.199;   52.872; -341.157; -277.718
498.483;   34.509; -562.152; -508.725
498.767;  185.203;  301.850;  300.271
499.051;  171.888; -126.149; -100.732
499.335;   18.036; -693.149; -739.731
499.619;  -25.068; -381.129; -423.767
499.903;   28.787; -272.155;  -65.721
500.187;   34.999; -588.153; -316.724
500.471;   18.339; -796.152; -595.727
500.755;  112.486;   62.839;  -96.710
501.039;   24.662; -270.155; -357.721
501.323;  111.384;  -21.141;  264.254
501.607;   48.764; -447.163; -503.706
501.891;   -1.302; -607.156; -512.718
502.174;  -42.367; -726.144; -585.741
502.458;   65.568;   89.849;  370.273
502.742;   23.383; -180.138; -191.751
503.026;   91.426; -412.147; -254.734
503.310;  165.024; -437.159; -375.713
503.593;  110.928; -464.147; -325.735
503.877;  122.847; -232.133; -156.760
504.161;  186.727;    2.847;  -50.724
504.444;  147.738; -841.158; -710.716
504.728;  422.882; -487.164; -522.704
505.012;  641.225; -257.150;  -76.729
505.295;  519.937; -417.161; -212.711
505.579;  491.780; -256.156; -496.719
505.862;  654.668; -555.145; -333.738
506.146;  658.852; -681.159; -758.714
506.429;  383.402;  568.841;  461.286
506.713;   57.272; -732.151; -667.728
506.996;  301.992;   90.846;  295.278
507.280;  307.827; -633.165; -474.703
507.563;  231.686; -469.155; -261.721
507.847;   73.150; -423.153; -112.724
508.130;   69.188; -665.161; -456.711
508.413;   87.159; -758.167; -577.700
508.697;  243.535; -151.167;   12.300
508.980;  125.627; -422.153; -312.724
509.263;    1.257; -466.155; -450.720
509.547;   33.700; -124.150;   82.271
509.830;   59.315; -172.160;  140.289
510.113;   91.329;  128.844;  298.281
510.396;   37.607; -530.152; -300.725
510.680;  217.870; -818.145; -812.738
510.963;  820.796;  184.846;  180.277
511.246;  720.257; -493.150; -357.730
511.529;  278.649; -482.145;  -83.739
511.812;  339.594; -250.134;   10.241
512.095;  234.269; -740.151; -396.728
512.378;   57.757; -317.147; -245.736
512.661;   26.840; -703.137; -623.753
512.944;   17.597; -750.142; -637.744
513.227;   60.187; -170.137; -171.752
513.510;   33.158; -479.144; -671.741
513.793;   22.563; -485.140; -435.747
514.076;  130.227;  -43.127;  -39.771
514.359;  106.766; -294.149; -135.732
514.642;   77.375; -442.142; -567.744
514.925;  676.712;  581.860;  561.253
515.208;  878.540; -498.134; -443.758
515.491;  582.579; -276.133; -182.761
515.773;  331.161; -410.143; -337.742
516.056; 1901.146;  249.864;  409.246
516.339; 2608.275; -754.136; -652.755
516.622; 1980.455; -518.150; -488.730
516.904; 1482.118;  882.857;  975.257
517.187;  709.186; -730.138; -523.752
517.470;  398.417; -568.143; -510.743
517.752;  387.478; -624.136; -470.756
518.035;  307.349; -708.139; -725.749
518.318;  333.575; -799.136; -744.755
518.600; 2146.107; -300.132; -325.762
518.883; 2948.474;  310.858;   88.256
519.165; 1444.229; -585.138; -426.751
519.448;  408.532;  -61.132;  -19.762
519.730;  216.010; -573.126; -415.773
520.013;  338.375;  588.867;  664.240
520.295; 1013.421;  -94.134;  -15.759
520.578; 2321.445; -335.131; -305.764
520.860; 2534.907; -254.132;   56.238
521.143; 1275.505; -763.135; -584.756
521.425;  467.047; -251.125; -279.775
521.707;  641.553; -622.127; -380.771
521.990; 1635.153; -199.127;  167.229
522.272; 1873.690; -116.140;   -4.748
522.554;  903.362; -237.143; -157.742
522.836;  412.968;  -24.134;   99.241
523.119;  242.675; -496.148; -189.734
523.401;  158.027; -448.130; -314.766
523.683;   84.341; -865.137; -693.753
523.965;  268.634;  408.862;  260.248
524.247;  245.293;   54.878;  170.220
524.529;  188.870; -451.134; -367.759
524.812;  331.203;   -3.130;  191.234
525.094;  773.283; -773.138; -631.751
525.376; 1234.581; -143.124;   78.223
525.658;  742.023; -441.136; -339.754
525.940;   26.792; -805.131; -671.764
526.222;   54.251; -188.136;  -88.755
526.504;  136.790; -190.131;   32.237
526.786;  240.748; -960.133; -647.760
527.068;  366.987; -124.123;  -67.778
527.349;  170.894; -865.137; -774.754
527.631;  141.082; -137.132;   22.238
527.913;  119.427; -664.127; -450.771
528.195;  154.766; -761.125; -639.774
528.477;  218.940;  -93.134;  -30.758
528.759;   99.503; -648.130; -522.766
529.040;   25.086; -569.123; -293.778
529.322;   57.493; -235.125;  -10.774
529.604;  165.706;  -47.130;   93.233
529.886;  162.685; -546.126; -302.773
530.167;  129.222;  232.870;  192.235
530.449;   52.556;    1.853;   63.265
530.731;   22.467; -572.122; -459.779
531.012;   49.638; -513.120; -216.784
531.294;   84.651; -118.116;  -43.792
531.575;  140.522;  290.875;  538.225
531.857;   32.885; -548.135; -266.757
532.138;   92.408; -113.141;   40.254
532.420;  196.532;  294.865;  403.244
532.701;  265.500; -722.133; -751.760
532.983;  389.903;  232.867;  182.239
533.264;  145.508; -243.126;  175.228
533.546;  -21.349; -491.136; -508.755
533.827;   63.847;  173.867;   -1.759
534.109;   62.185; -352.135;  -80.757
534.390;  111.561; -725.132; -582.762
534.671;  255.881; -270.135;  -82.756
534.953;  137.913; -751.123; -611.779
535.234;   32.462; -426.117; -255.789
535.515;  -80.579; -891.119; -735.785
535.796;  -15.827; -431.128; -193.770
536.078; -119.819;-1050.124; -904.777
536.359;   25.939;  -22.123;    3.221
536.640;   -7.808; -480.125; -197.774
536.921;  152.011;  225.871;  143.232
537.202;  343.855;  -87.138;  -16.751
537.483;  421.519;  251.869;  377.236
537.764;  142.422;   17.870;   98.235
538.045;  -44.710; -543.134; -371.758
538.326;  -33.963; -596.129; -447.768
538.607;   14.329; -686.127; -476.771
538.888;  161.179;   98.879;    5.218
