
Integration time [ms]: 100.000
Averaging Nr. [scans]: 40
Smoothing Nr. [pixels]: 0
Data measured with spectrometer [name]: 2101013U2
Wave   ;Sample   ;Dark     ;Reference
[nm]   ;[counts] ;[counts] ;[counts] 

394.013;   71.511; -450.257; -315.536
394.305;  250.459; -461.258; -419.536
394.596; 1171.052; -676.269; -527.514
394.887; 2811.794; -796.268; -654.518
395.178; 1051.076;  145.736;   11.476
395.470;   94.412; -210.263; -356.526
395.761;  225.634;  305.734;  394.479
396.052;  379.247; -545.284; -306.489
396.343;  395.944; -557.276; -454.503
396.634;  109.137; -200.279; -290.497
396.926;  133.266; -618.268; -565.517
397.217;  113.524;   11.725;  -17.504
397.508;   58.890; -366.273; -154.507
397.799;   55.187; -555.279; -571.497
398.090;   11.706; -973.280; -902.495
398.381;  114.969;   11.708;  -11.473
398.672;    8.245; -585.292; -742.473
398.963;   60.243; -348.279; -373.498
399.254;  104.755;   54.709; -209.475
399.545;  -23.544;-1017.266; -883.520
399.836;   66.608; -407.277; -343.501
400.127;   54.194; -205.295; -209.468
400.418;   69.010; -423.274; -392.506
400.709;   67.168; -359.281; -333.493
401.000;   68.759; -268.291; -309.476
401.290;  105.779;  225.698;  115.545
401.581;   65.054; -166.286; -228.485
401.872;   32.540; -542.298; -486.462
402.163;   51.562; -313.296; -252.467
402.454;   99.655; -123.291; -163.475
402.744;   98.278; -844.297; -813.465
403.035;  454.310; -226.293;  -86.471
403.326;  590.898; -366.292; -384.474
403.617;  382.560;  204.701;  165.539
403.907;  272.253; -593.283; -679.490
404.198; 2450.681; -545.307; -599.446
404.489; 6380.783; -618.283; -588.491
404.779; 2105.207; -618.302; -660.456
405.070;  237.435;  -67.304; -174.451
405.360;  348.662; -259.293; -238.472
405.651;  371.519;  125.699;   98.542
405.942;  173.974;  209.714;  127.516
406.232;  297.589; -432.285; -413.487
406.523;  489.205;  641.706;  758.530
406.813;  115.951; -579.286; -644.484
407.104;  370.743;  261.708;  144.527
407.394;  204.736; -604.299; -591.462
407.685;  157.688;  336.715;  222.513
407.975;   75.431; -400.283; -382.490
408.265;  114.170; -134.289; -190.478
408.556;   87.102; -472.291; -459.475
408.846;  160.780;  474.706;  429.530
409.137;   91.829;   -1.288; -216.480
409.427;   57.939; -193.285; -271.487
409.717;   57.044; -776.273; -692.508
410.007;  143.857;    4.715; -170.486
410.298;   83.797; -360.295; -342.469
410.588;   76.236; -495.285; -510.486
410.878;   34.840; -792.287; -873.482
411.168;  115.468; -481.298; -478.463
411.459;  118.126; -295.283; -242.489
411.749;   75.726; -609.292; -507.474
412.039;   77.702; -755.289; -386.480
412.329;  218.251;   40.722;  132.501
412.619;  211.727;  -62.286; -148.485
412.909;  368.498;  639.711;  594.521
413.199;  359.906; -130.280; -251.495
413.490;  419.338;  521.710;  352.523
413.780;  177.410;-1013.279; -913.496
414.070;  354.520;  -46.276;  235.497
414.360;  390.447; -729.278; -666.498
414.650;  436.186; -726.288; -688.482
414.940;  571.860; -538.280; -441.496
415.230;  956.633;   50.712;   74.519
415.520; 6254.826;  155.730;   66.486
415.809;24863.317; -305.281; -125.493
416.099;18749.485; -388.277; -229.501
416.389; 5274.057;  435.726;  236.494
416.679; 3049.591;   91.738;   85.473
416.969;  535.645; -527.287; -503.483
417.259;  476.887;  341.721;  171.503
417.549;  702.491;  522.718;  318.508
417.838; 1691.918; -205.268; -147.518
418.128; 5647.794;  650.710;  492.522
418.418; 4610.350; -491.272; -579.509
418.708; 3144.283;    9.726;  -48.506
418.997;11918.128; -474.275; -480.505
419.287;12211.115; -733.273; -790.507
419.577;11562.675; -160.283; -123.489
419.866;38741.983; -588.277; -498.501
420.156;39518.847; -242.270;  -55.513
420.446; 6939.483; -112.263;  -26.526
420.735;  886.565; -376.271; -446.512
421.025;  831.321; 1830.722;  315.502
421.314;  709.438; -203.271; -226.512
421.604; 1491.386;   89.732;  233.484
421.893;  849.085; -705.271; -602.511
422.183;  241.083; -487.263; -461.526
422.472;  400.761;  -36.271; -107.511
422.762;  475.162; -416.266; -379.521
423.051;  267.321; -916.276; -916.503
423.341;  317.367; -491.273; -439.507
423.630;  442.593; -121.265;   15.477
423.919;  398.577;   58.725;   49.495
424.209;  394.839;  -31.263;   56.473
424.498;  500.916;   68.732;  161.483
424.787; 1129.722; -535.267; -601.518
425.077; 3472.817;   34.735;   29.478
425.366; 4848.745; -734.262; -744.528
425.655; 9936.392;  639.727;  259.493
425.945;21834.804; -313.247; -268.554
426.234;11813.369;  117.741;  300.467
426.523; 5254.074;  -86.259; -350.534
426.812; 7092.058;  107.734;  159.480
427.101;10500.957; -127.269; -323.515
427.390;13015.951;  -55.270;  -86.514
427.680; 2924.669; -624.257; -411.538
427.969;  504.481; -330.255; -301.540
428.258;  334.986; -385.257; -477.536
428.547;  570.855;  449.728;  397.490
428.836; 1299.322; -421.253; -398.543
429.125; 1871.676; -199.259;  -72.534
429.414;  850.746; -330.251; -294.548
429.703; 3201.146; -231.251; -213.548
429.992; 9654.624; -938.250; -828.549
430.281; 6111.501; -397.264; -331.524
430.570;  605.161;  -21.252;   32.454
430.859;  594.048;  279.741;  352.466
431.148;  448.399;  636.752;  631.446
431.437;  309.810;  391.748;  367.454
431.725;  170.912; -544.257; -481.536
432.014;  140.830; -845.253; -756.545
432.303;  396.878; -149.239; -105.569
432.592;  662.108; -460.263; -178.525
432.881; 1087.676; -601.248; -437.554
433.169; 6309.206; -343.255;  -61.540
433.458;12821.763;  445.765;  540.424
433.747; 5247.601; -397.261; -289.529
434.036;  909.153; -275.242; -280.564
434.324; 2147.087; -395.249; -379.551
434.613; 3712.046;   40.757;  159.437
434.902; 1214.793;  333.760;  439.433
435.190;  587.527;   75.761;  295.431
435.479;  332.477;  -52.245;   83.441
435.767;  126.661; -411.244; -427.561
436.056;  223.148; -340.242; -294.563
436.345;  376.570; -372.240; -223.568
436.633;  396.557;   60.750;  383.450
436.922;  271.472;  208.760;  414.432
437.210;  609.053; -194.236;    1.426
437.499; 1991.236; -583.235; -432.576
437.787; 2146.302; -339.236;  -10.574
438.075;  556.807;   56.761;  162.430
438.364;  768.760;  -44.238;  250.429
438.652;  463.269; -286.226; -138.592
438.941;  128.806;    3.770;  269.415
439.229;    3.883; -665.252; -466.545
439.517;   39.445; -160.234;  -85.577
439.806;   -0.265; -501.225; -290.595
440.094;  187.178;  377.766;  650.421
440.382;  205.032; -653.233; -302.580
440.670;  223.561; -361.235; -285.576
440.959;   28.128; -347.223; -170.599
441.247;   80.093; -151.229; -109.587
441.535;  122.293; -266.235;   31.423
441.823;   54.075; -497.234; -305.578
442.111;  195.898;  173.771;  327.412
442.400;  534.627; -628.245; -335.559
442.688; 1425.002; -111.234; -620.579
442.976; 1004.719; -786.213; -450.617
443.264;  110.492; -324.224; -364.597
443.552;   99.845; -258.226;   51.408
443.840;  172.042;  602.765;  876.423
444.128;  108.931;  265.767;  269.420
444.416;   12.625; -694.228; -312.588
444.704;   39.559; -465.219;  -92.605
444.992;   76.898;   -0.226;  240.407
445.280;   50.282; -517.230;  -94.585
445.568;   50.398; -694.212; -396.618
445.856;  357.992; -174.221;  357.398
446.143;  814.305;  -54.220;   -7.604
446.431;  631.854;  -25.228;  625.411
446.719;  259.029;  489.783;  675.391
447.007;  177.076;  481.769;  705.416
447.295;  188.150;  597.777;  871.402
447.583;   98.241; -464.229;  -34.587
447.870;  153.789; -434.221; -202.601
448.158;  417.906; -104.230;  129.415
448.446;  339.481; -800.219; -338.604
448.733;  171.993;   13.776;  269.403
449.021;  260.772;   60.788;  341.382
449.309;  180.663; -296.210;  208.379
449.596;  231.125;  128.783;   59.392
449.884;  159.907; -571.222; -325.600
450.172;  157.185; -756.227; -406.590
450.459;  430.777;  645.786;  780.387
450.747; 2404.198; -411.218; -147.608
451.034; 7806.205;  493.772;  889.411
451.322; 6268.030; -413.214; -170.614
451.609;  503.895;  292.777;  508.403
451.897;  604.453; -550.203; -183.634
452.184; 1876.775; -622.223; -400.598
452.472; 1721.010;   97.792;  269.375
452.759;  345.007;  512.781;  864.395
453.047;  124.895; -407.212; -125.617
453.334;   95.690; -732.219; -216.606
453.621;   95.232; -438.214; -161.615
453.909;  120.720;   13.796;  384.368
454.196;  108.142; -299.199; -123.641
454.483;  203.441;  317.798;  540.364
454.771;  137.238; -215.208;  196.374
455.058;   44.291; -316.207;  102.374
455.345;  128.074;   71.807;  344.347
455.632;   82.370; -128.207;  235.373
455.919;   48.465;  -82.196;  182.354
456.207;  -56.979; -774.198; -450.642
456.494;   -9.971; -475.200;  -66.639
456.781;   21.187; -399.202; -198.635
457.068;   63.102; -253.206;  -29.628
457.355;   -1.947; -698.206; -401.629
457.642;   22.558; -552.205; -290.630
457.929;   19.189; -778.194; -417.651
458.216;   69.520; -575.212; -354.617
458.503;  222.219; -173.193;  -19.652
458.790;  253.361; -864.208; -630.625
459.077;  255.567;  -77.202;  110.364
459.364;  790.732; -350.195; -210.649
459.651; 1738.049;  -46.206;  220.372
459.938;  768.651; -864.209; -665.623
460.225;  147.120;  132.799;  276.363
460.512;  -33.988; -836.197; -688.645
460.799;  108.522;  -32.218;  320.392
461.086;   76.009; -370.200; -251.640
461.372;   53.672; -509.198; -279.642
461.659;  128.741; -165.196;  108.354
461.946;   81.068; -445.193;  -54.651
462.233;  230.581;  842.800;  888.361
462.519;  361.028; -814.201; -464.639
462.806; 1058.537; -768.197; -497.645
463.093;  891.389; -445.191;  -66.656
463.380;  -14.818; -920.186; -824.664
463.666;   57.489; -259.197;  -18.646
463.953;   93.102; -406.195; -243.648
464.239;  200.102; -173.195;  -77.648
464.526;  402.388;  413.806;  743.350
464.813;  353.876; -565.190; -304.658
465.099;  358.119;  606.807;  607.348
465.386;  338.748;  903.807;  921.348
465.672;   50.713; -694.197; -522.645
465.959;   33.970; -598.188; -520.662
466.245;   25.023; -468.193; -359.652
466.532;   99.725; -109.195;   63.352
466.818;   77.557; -357.186; -216.664
467.104;   -0.302; -488.182; -415.672
467.391;  -31.122; -628.189; -459.658
467.677;   31.736; -289.186;    9.335
467.964;   17.985; -682.189; -471.660
468.250;   90.213; -331.186; -160.665
468.536;   76.130;   90.811;  180.341
468.822;  -13.999; -821.184; -574.668
469.109;  144.757;  351.827;  471.311
469.395;  194.433;  729.808;  787.346
469.681;  201.283;   46.811;  156.341
469.967; 1261.887; -699.188; -382.660
470.254; 2765.971; -494.188; -306.662
470.540; 1723.065; -601.196; -476.646
470.826;  260.910; -488.181; -397.675
471.112;  299.204;  288.816;  113.331
471.398;   93.909; -253.183;  -58.670
471.684;   53.639; -626.177; -447.680
471.970;    9.339; -918.180; -981.675
472.256;   28.457; -521.192; -441.654
472.542;   10.093; -499.171; -434.691
472.828;   15.244; -743.182; -607.672
473.114;   50.688; -380.166; -283.700
473.400;   25.181; -504.175; -293.684
473.686;   49.070; -452.166; -400.701
473.972;   50.746; -230.174; -131.687
474.258;  -20.443; -925.173; -843.689
474.544;  209.931; -183.178;   -2.679
474.830;  289.408;  -65.175;   45.316
475.116;  482.103; -123.190; -196.658
475.401;  666.766; -558.180; -467.676
475.687;  195.840; -725.180; -718.676
475.973;    7.002; -673.181; -770.673
476.259;  247.035;  736.825;  764.315
476.544;  381.372; -539.176; -437.682
476.830;  823.689; -398.172; -322.690
477.116;  692.171; -430.177; -336.682
477.401;  122.716;  346.820;  358.324
477.687;  -11.194; -289.175; -405.684
477.973;   45.156;   21.819;   28.326
478.258;   -3.409; -448.163; -348.706
478.544;   57.744;   21.815;   61.334
478.829;  -50.676; -818.171; -738.692
479.115;  -32.636; -749.172; -651.690
479.401;   -4.008; -444.174; -449.686
479.686;   36.589; -253.180;  -74.676
479.972;  -20.864; -886.178; -776.680
480.257;   51.515; -258.166;  -65.700
480.542;   -1.172; -614.170; -469.693
480.828;  224.930; 1288.824; 1392.317
481.113;  -30.198; -464.176; -426.683
481.399;  -17.159; -236.161; -202.711
481.684;  -43.086; -620.166; -462.700
481.969;   10.980; -158.159;  -73.713
482.255;    4.514; -439.169; -285.695
482.540;    2.211; -569.178; -441.680
482.825;    0.127; -395.187; -404.663
483.110;   93.217;  -85.169; -105.696
483.396;  189.202; -840.157; -652.718
483.681;  472.747;  543.826;  730.313
483.966;  162.923; -696.160; -700.712
484.251;    2.045; -404.174; -310.687
484.536;   14.050; -356.165; -378.703
484.822;   32.699; -205.173; -218.687
485.107;  -22.134; -599.152; -502.726
485.392;  111.506;  662.836;  541.296
485.677;   81.153;  354.832;  163.302
485.962;   90.074;  160.843;  270.283
486.247;   92.024;  -14.162;   -8.707
486.532;   50.641; -178.166; -325.701
486.817;  168.210;  381.839;  431.291
487.102;  120.474; -453.154; -514.722
487.387;  667.629; -637.156; -652.718
487.672; 1174.637; -154.164;  -38.705
487.957;  716.567; -394.160; -286.711
488.241;  215.559; -290.150; -314.729
488.526;  756.593; -280.152; -148.726
488.811; 1204.588; -881.177; -818.680
489.096;  881.677; -666.154; -702.723
489.381;  507.764;    3.847;  162.275
489.666;  379.865; -428.161; -510.710
489.950;  165.955;  558.846;  627.277
490.235;  -26.121; -480.151; -458.728
490.520;  -37.111; -756.161; -723.710
490.804;  -58.669; -827.156; -736.719
491.089;    9.250; -469.149; -299.732
491.374;   34.160; -132.164;  -75.704
491.658;   -6.988; -817.147; -717.735
491.943;  187.197; -657.152; -609.727
492.227;  273.395; -178.155;  -38.721
492.512;   64.949; -294.157; -341.717
492.797;  -72.031; -713.149; -716.731
493.081;  -50.535; -588.147; -598.735
493.366;  -31.684; -751.161; -635.711
493.650;  202.095;  831.859;  917.254
493.935;   29.561; -648.147; -447.734
494.219;  -24.418; -778.142; -687.743
494.503;  -39.886; -585.150; -487.730
494.788;   60.190;   46.842;   74.285
495.072;   84.960;  184.850;  434.271
495.356;  184.278; -463.148; -343.733
495.641;  475.047; -812.146; -736.736
495.925;  449.586; -976.156; -903.719
496.209;   41.574; -599.149; -451.732
496.494;  -32.918; -763.142; -544.744
496.778;   14.024; -364.154; -360.722
497.062;  -57.039; -819.156; -627.719
497.346;  -34.006; -869.160; -640.711
497.631;  141.732;  580.852;  560.266
497.915;   53.832;  -64.145;  175.261
498.199;   59.177; -341.157; -277.718
498.483;   39.466; -562.152; -508.725
498.767;  189.186;  301.850;  300.271
499.051;  181.847; -126.149; -100.732
499.335;   39.620; -693.149; -739.731
499.619;  -49.526; -381.129; -423.767
499.903;   30.918; -272.155;  -65.721
500.187;   33.756; -588.153; -316.724
500.471;   30.047; -796.152; -595.727
500.755;  108.290;   62.839;  -96.710
501.039;   19.944; -270.155; -357.721
501.323;   82.572;  -21.141;  264.254
501.607;   43.341; -447.163; -503.706
501.891;   12.628; -607.156; -512.718
502.174;  -40.306; -726.144; -585.741
502.458;   68.026;   89.849;  370.273
502.742;   37.371; -180.138; -191.751
503.026;  103.536; -412.147; -254.734
503.310;  181.778; -437.159; -375.713
503.593;  108.688; -464.147; -325.735
503.877;  124.563; -232.133; -156.760
504.161;  196.184;    2.847;  -50.724
504.444;  148.593; -841.158; -710.716
504.728;  449.434; -487.164; -522.704
505.012;  718.458; -257.150;  -76.729
505.295;  544.541; -417.161; -212.711
505.579;  553.135; -256.156; -496.719
505.862;  769.579; -555.145; -333.738
506.146;  741.206; -681.159; -758.714
506.429;  387.081;  568.841;  461.286
506.713;   84.180; -732.151; -667.728
506.996;  308.123;   90.846;  295.278
507.280;  360.879; -633.165; -474.703
507.563;  250.317; -469.155; -261.721
507.847;  109.257; -423.153; -112.724
508.130;   81.842; -665.161; -456.711
508.413;  126.910; -758.167; -577.700
508.697;  258.311; -151.167;   12.300
508.980;  136.959; -422.153; -312.724
509.263;   -0.587; -466.155; -450.720
509.547;   46.633; -124.150;   82.271
509.830;   54.444; -172.160;  140.289
510.113;   82.910;  128.844;  298.281
510.396;   41.214; -530.152; -300.725
510.680;  170.805; -818.145; -812.738
510.963;  634.903;  184.846;  180.277
511.246;  536.116; -493.150; -357.730
511.529;  255.310; -482.145;  -83.739
511.812;  368.034; -250.134;   10.241
512.095;  262.452; -740.151; -396.728
512.378;   73.592; -317.147; -245.736
512.661;   53.029; -703.137; -623.753
512.944;   39.434; -750.142; -637.744
513.227;   67.876; -170.137; -171.752
513.510;   46.819; -479.144; -671.741
513.793;   40.551; -485.140; -435.747
514.076;  151.046;  -43.127;  -39.771
514.359;  110.125; -294.149; -135.732
514.642;   90.687; -442.142; -567.744
514.925;  755.949;  581.860;  561.253
515.208; 1008.456; -498.134; -443.758
515.491;  656.745; -276.133; -182.761
515.773;  379.748; -410.143; -337.742
516.056; 2090.761;  249.864;  409.246
516.339; 2833.490; -754.136; -652.755
516.622; 1928.438; -518.150; -488.730
516.904; 1269.105;  882.857;  975.257
517.187;  598.375; -730.138; -523.752
517.470;  404.504; -568.143; -510.743
517.752;  442.568; -624.136; -470.756
518.035;  339.312; -708.139; -725.749
518.318;  361.015; -799.136; -744.755
518.600; 2408.574; -300.132; -325.762
518.883; 3334.786;  310.858;   88.256
519.165; 1592.667; -585.138; -426.751
519.448;  396.598;  -61.132;  -19.762
519.730;  222.179; -573.126; -415.773
520.013;  316.791;  588.867;  664.240
520.295;  866.636;  -94.134;  -15.759
520.578; 1959.162; -335.131; -305.764
520.860; 2189.023; -254.132;   56.238
521.143; 1132.595; -763.135; -584.756
521.425;  473.392; -251.125; -279.775
521.707;  669.871; -622.127; -380.771
521.990; 1792.547; -199.127;  167.229
522.272; 2052.103; -116.140;   -4.748
522.554;  934.999; -237.143; -157.742
522.836;  358.884;  -24.134;   99.241
523.119;  226.835; -496.148; -189.734
523.401;  160.769; -448.130; -314.766
523.683;   98.380; -865.137; -693.753
523.965;  275.198;  408.862;  260.248
524.247;  300.714;   54.878;  170.220
524.529;  206.536; -451.134; -367.759
524.812;  342.071;   -3.130;  191.234
525.094;  862.697; -773.138; -631.751
525.376; 1331.526; -143.124;   78.223
525.658;  809.387; -441.136; -339.754
525.940;   26.433; -805.131; -671.764
526.222;   39.341; -188.136;  -88.755
526.504;  123.381; -190.131;   32.237
526.786;  197.164; -960.133; -647.760
527.068;  337.232; -124.123;  -67.778
527.349;  144.083; -865.137; -774.754
527.631;  140.548; -137.132;   22.238
527.913;  137.646; -664.127; -450.771
528.195;  157.210; -761.125; -639.774
528.477;  228.731;  -93.134;  -30.758
528.759;  145.571; -648.130; -522.766
529.040;   55.681; -569.123; -293.778
529.322;   65.338; -235.125;  -10.774
529.604;  142.473;  -47.130;   93.233
529.886;  132.453; -546.126; -302.773
530.167;  132.489;  232.870;  192.235
530.449;   55.116;    1.853;   63.265
530.731;   31.313; -572.122; -459.779
531.012;   83.835; -513.120; -216.784
531.294;   75.225; -118.116;  -43.792
531.575;  156.092;  290.875;  538.225
531.857;   49.901; -548.135; -266.757
532.138;   87.920; -113.141;   40.254
532.420;  175.897;  294.865;  403.244
532.701;  239.716; -722.133; -751.760
532.983;  354.594;  232.867;  182.239
533.264;  125.551; -243.126;  175.228
533.546;  -33.485; -491.136; -508.755
533.827;   46.437;  173.867;   -1.759
534.109;   44.675; -352.135;  -80.757
534.390;   98.352; -725.132; -582.762
534.671;  257.521; -270.135;  -82.756
534.953;  161.609; -751.123; -611.779
535.234;   34.935; -426.117; -255.789
535.515;  -66.532; -891.119; -735.785
535.796;  -21.859; -431.128; -193.770
536.078; -110.399;-1050.124; -904.777
536.359;    0.484;  -22.123;    3.221
536.640;  -13.464; -480.125; -197.774
536.921;  158.753;  225.871;  143.232
537.202;  383.269;  -87.138;  -16.751
537.483;  458.686;  251.869;  377.236
537.764;  174.239;   17.870;   98.235
538.045;  -25.820; -543.134; -371.758
538.326;  -27.120; -596.129; -447.768
538.607;   20.997; -686.127; -476.771
538.888;  174.525;   98.879;    5.218
