
Integration time [ms]: 200.000
Averaging Nr. [scans]: 10
Smoothing Nr. [pixels]: 0
Data measured with spectrometer [name]: 2101013U2
Wave   ;Sample   ;Dark     ;Reference
[nm]   ;[counts] ;[counts] ;[counts] 

394.013;   96.058; -450.257; -315.536
394.305;  402.854; -461.258; -419.536
394.596; 1981.988; -676.269; -527.514
394.887; 4501.715; -796.268; -654.518
395.178; 1820.864;  145.736;   11.476
395.470;  109.782; -210.263; -356.526
395.761;  368.939;  305.734;  394.479
396.052;  567.886; -545.284; -306.489
396.343;  568.898; -557.276; -454.503
396.634;  166.448; -200.279; -290.497
396.926;  127.110; -618.268; -565.517
397.217;  146.006;   11.725;  -17.504
397.508;   56.831; -366.273; -154.507
397.799;    6.448; -555.279; -571.497
398.090;  -54.161; -973.280; -902.495
398.381;  201.764;   11.708;  -11.473
398.672;  -63.434; -585.292; -742.473
398.963;   34.258; -348.279; -373.498
399.254;  186.081;   54.709; -209.475
399.545; -104.267;-1017.266; -883.520
399.836;   79.481; -407.277; -343.501
400.127;   81.926; -205.295; -209.468
400.418;   65.922; -423.274; -392.506
400.709;   52.518; -359.281; -333.493
401.000;   80.487; -268.291; -309.476
401.290;  174.324;  225.698;  115.545
401.581;  143.458; -166.286; -228.485
401.872;   16.881; -542.298; -486.462
402.163;   58.614; -313.296; -252.467
402.454;  137.782; -123.291; -163.475
402.744;   43.500; -844.297; -813.465
403.035;  596.350; -226.293;  -86.471
403.326;  784.471; -366.292; -384.474
403.617;  609.872;  204.701;  165.539
403.907;  399.895; -593.283; -679.490
404.198; 4135.949; -545.307; -599.446
404.489;10369.103; -618.283; -588.491
404.779; 3519.929; -618.302; -660.456
405.070;  379.195;  -67.304; -174.451
405.360;  569.653; -259.293; -238.472
405.651;  624.047;  125.699;   98.542
405.942;  289.350;  209.714;  127.516
406.232;  321.974; -432.285; -413.487
406.523;  771.542;  641.706;  758.530
406.813;   93.654; -579.286; -644.484
407.104;  527.163;  261.708;  144.527
407.394;  206.474; -604.299; -591.462
407.685;  254.172;  336.715;  222.513
407.975;  105.600; -400.283; -382.490
408.265;  155.005; -134.289; -190.478
408.556;   99.477; -472.291; -459.475
408.846;  320.043;  474.706;  429.530
409.137;  131.919;   -1.288; -216.480
409.427;   86.673; -193.285; -271.487
409.717;   56.236; -776.273; -692.508
410.007;  197.363;    4.715; -170.486
410.298;  144.430; -360.295; -342.469
410.588;  118.869; -495.285; -510.486
410.878;   16.137; -792.287; -873.482
411.168;  141.285; -481.298; -478.463
411.459;  208.392; -295.283; -242.489
411.749;   88.975; -609.292; -507.474
412.039;   50.016; -755.289; -386.480
412.329;  353.969;   40.722;  132.501
412.619;  306.154;  -62.286; -148.485
412.909;  620.910;  639.711;  594.521
413.199;  533.739; -130.280; -251.495
413.490;  644.394;  521.710;  352.523
413.780;  182.046;-1013.279; -913.496
414.070;  538.400;  -46.276;  235.497
414.360;  534.163; -729.278; -666.498
414.650;  646.330; -726.288; -688.482
414.940;  846.245; -538.280; -441.496
415.230; 1491.526;   50.712;   74.519
415.520;10551.287;  155.730;   66.486
415.809;39641.517; -305.281; -125.493
416.099;31552.384; -388.277; -229.501
416.389; 8710.519;  435.726;  236.494
416.679; 5268.988;   91.738;   85.473
416.969;  906.144; -527.287; -503.483
417.259; 1080.849;  341.721;  171.503
417.549; 1197.915;  522.718;  318.508
417.838; 2845.314; -205.268; -147.518
418.128; 9293.003;  650.710;  492.522
418.418; 7794.947; -491.272; -579.509
418.708; 5349.419;    9.726;  -48.506
418.997;19746.412; -474.275; -480.505
419.287;20757.830; -733.273; -790.507
419.577;20295.791; -160.283; -123.489
419.866;62244.181; -588.277; -498.501
420.156;62686.380; -242.270;  -55.513
420.446;12136.676; -112.263;  -26.526
420.735; 1365.970; -376.271; -446.512
421.025; 1526.662; 1830.722;  315.502
421.314; 1040.867; -203.271; -226.512
421.604; 1912.502;   89.732;  233.484
421.893; 1091.261; -705.271; -602.511
422.183;  380.576; -487.263; -461.526
422.472;  619.664;  -36.271; -107.511
422.762;  715.743; -416.266; -379.521
423.051;  380.901; -916.276; -916.503
423.341;  493.433; -491.273; -439.507
423.630;  584.053; -121.265;   15.477
423.919;  618.711;   58.725;   49.495
424.209;  633.985;  -31.263;   56.473
424.498;  851.310;   68.732;  161.483
424.787; 1831.320; -535.267; -601.518
425.077; 5426.850;   34.735;   29.478
425.366; 7340.494; -734.262; -744.528
425.655;16917.034;  639.727;  259.493
425.945;36664.202; -313.247; -268.554
426.234;21367.531;  117.741;  300.467
426.523; 8453.039;  -86.259; -350.534
426.812;11669.436;  107.734;  159.480
427.101;17164.496; -127.269; -323.515
427.390;21399.386;  -55.270;  -86.514
427.680; 4492.871; -624.257; -411.538
427.969;  809.888; -330.255; -301.540
428.258;  521.657; -385.257; -477.536
428.547;  874.353;  449.728;  397.490
428.836; 1774.014; -421.253; -398.543
429.125; 2461.342; -199.259;  -72.534
429.414; 1237.351; -330.251; -294.548
429.703; 5410.451; -231.251; -213.548
429.992;15585.757; -938.250; -828.549
430.281;10393.665; -397.264; -331.524
430.570; 1019.836;  -21.252;   32.454
430.859;  855.438;  279.741;  352.466
431.148;  752.196;  636.752;  631.446
431.437;  513.335;  391.748;  367.454
431.725;  224.260; -544.257; -481.536
432.014;  189.426; -845.253; -756.545
432.303;  609.718; -149.239; -105.569
432.592;  903.275; -460.263; -178.525
432.881; 1736.697; -601.248; -437.554
433.169;10717.690; -343.255;  -61.540
433.458;21186.172;  445.765;  540.424
433.747; 8984.603; -397.261; -289.529
434.036; 1426.679; -275.242; -280.564
434.324; 3515.077; -395.249; -379.551
434.613; 6089.468;   40.757;  159.437
434.902; 2074.702;  333.760;  439.433
435.190;  797.516;   75.761;  295.431
435.479;  436.839;  -52.245;   83.441
435.767;  146.252; -411.244; -427.561
436.056;  353.572; -340.242; -294.563
436.345;  563.106; -372.240; -223.568
436.633;  663.369;   60.750;  383.450
436.922;  440.609;  208.760;  414.432
437.210;  786.856; -194.236;    1.426
437.499; 2249.369; -583.235; -432.576
437.787; 2626.156; -339.236;  -10.574
438.075;  752.425;   56.761;  162.430
438.364;  983.729;  -44.238;  250.429
438.652;  569.798; -286.226; -138.592
438.941;  206.440;    3.770;  269.415
439.229;    3.031; -665.252; -466.545
439.517;   72.283; -160.234;  -85.577
439.806;    3.123; -501.225; -290.595
440.094;  294.995;  377.766;  650.421
440.382;  225.101; -653.233; -302.580
440.670;  267.969; -361.235; -285.576
440.959;   15.251; -347.223; -170.599
441.247;   80.758; -151.229; -109.587
441.535;  179.780; -266.235;   31.423
441.823;   21.491; -497.234; -305.578
442.111;  307.765;  173.771;  327.412
442.400;  706.238; -628.245; -335.559
442.688; 1729.495; -111.234; -620.579
442.976; 1147.793; -786.213; -450.617
443.264;  134.034; -324.224; -364.597
443.552;  134.300; -258.226;   51.408
443.840;  290.478;  602.765;  876.423
444.128;  213.400;  265.767;  269.420
444.416;  -32.431; -694.228; -312.588
444.704;   58.899; -465.219;  -92.605
444.992;  107.704;   -0.226;  240.407
445.280;   64.441; -517.230;  -94.585
445.568;   17.099; -694.212; -396.618
445.856;  495.474; -174.221;  357.398
446.143;  906.093;  -54.220;   -7.604
446.431;  827.675;  -25.228;  625.411
446.719;  388.730;  489.783;  675.391
447.007;  328.732;  481.769;  705.416
447.295;  311.947;  597.777;  871.402
447.583;  132.955; -464.229;  -34.587
447.870;  204.869; -434.221; -202.601
448.158;  572.539; -104.230;  129.415
448.446;  387.895; -800.219; -338.604
448.733;  255.636;   13.776;  269.403
449.021;  400.998;   60.788;  341.382
449.309;  297.822; -296.210;  208.379
449.596;  363.024;  128.783;   59.392
449.884;  279.358; -571.222; -325.600
450.172;  233.184; -756.227; -406.590
450.459;  782.066;  645.786;  780.387
450.747; 4338.222; -411.218; -147.608
451.034;13045.777;  493.772;  889.411
451.322;10871.371; -413.214; -170.614
451.609;  992.139;  292.777;  508.403
451.897; 1046.424; -550.203; -183.634
452.184; 2962.347; -622.223; -400.598
452.472; 2861.157;   97.792;  269.375
452.759;  607.296;  512.781;  864.395
453.047;  150.394; -407.212; -125.617
453.334;   71.109; -732.219; -216.606
453.621;  137.175; -438.214; -161.615
453.909;  209.111;   13.796;  384.368
454.196;  194.584; -299.199; -123.641
454.483;  379.045;  317.798;  540.364
454.771;  214.662; -215.208;  196.374
455.058;  109.267; -316.207;  102.374
455.345;  242.073;   71.807;  344.347
455.632;  161.272; -128.207;  235.373
455.919;  109.321;  -82.196;  182.354
456.207; -134.508; -774.198; -450.642
456.494;  -24.036; -475.200;  -66.639
456.781;  -27.262; -399.202; -198.635
457.068;   95.083; -253.206;  -29.628
457.355;  -44.315; -698.206; -401.629
457.642;  -37.207; -552.205; -290.630
457.929;  -47.341; -778.194; -417.651
458.216;   94.895; -575.212; -354.617
458.503;  446.566; -173.193;  -19.652
458.790;  363.858; -864.208; -630.625
459.077;  457.646;  -77.202;  110.364
459.364; 1377.347; -350.195; -210.649
459.651; 2762.980;  -46.206;  220.372
459.938; 1359.643; -864.209; -665.623
460.225;  247.551;  132.799;  276.363
460.512;  -92.984; -836.197; -688.645
460.799;  157.020;  -32.218;  320.392
461.086;  110.772; -370.200; -251.640
461.372;   20.792; -509.198; -279.642
461.659;  179.323; -165.196;  108.354
461.946;  102.664; -445.193;  -54.651
462.233;  451.868;  842.800;  888.361
462.519;  623.663; -814.201; -464.639
462.806; 1651.417; -768.197; -497.645
463.093; 1473.397; -445.191;  -66.656
463.380;  -77.336; -920.186; -824.664
463.666;  103.420; -259.197;  -18.646
463.953;  164.339; -406.195; -243.648
464.239;  305.839; -173.195;  -77.648
464.526;  652.156;  413.806;  743.350
464.813;  484.116; -565.190; -304.658
465.099;  626.266;  606.807;  607.348
465.386;  559.272;  903.807;  921.348
465.672;   12.417; -694.197; -522.645
465.959;   16.645; -598.188; -520.662
466.245;   -0.028; -468.193; -359.652
466.532;  148.736; -109.195;   63.352
466.818;   92.663; -357.186; -216.664
467.104;  -13.272; -488.182; -415.672
467.391;   -7.681; -628.189; -459.658
467.677;   70.769; -289.186;    9.335
467.964;    2.130; -682.189; -471.660
468.250;   86.574; -331.186; -160.665
468.536;  154.821;   90.811;  180.341
468.822; -102.807; -821.184; -574.668
469.109;  314.158;  351.827;  471.311
469.395;  379.088;  729.808;  787.346
469.681;  372.726;   46.811;  156.341
469.967; 2193.333; -699.188; -382.660
470.254; 4428.346; -494.188; -306.662
470.540; 3022.120; -601.196; -476.646
470.826;  409.346; -488.181; -397.675
471.112;  546.698;  288.816;  113.331
471.398;  150.206; -253.183;  -58.670
471.684;   61.792; -626.177; -447.680
471.970;  -17.548; -918.180; -981.675
472.256;   54.786; -521.192; -441.654
472.542;   32.476; -499.171; -434.691
472.828;   -9.278; -743.182; -607.672
473.114;   61.446; -380.166; -283.700
473.400;  -12.682; -504.175; -293.684
473.686;   35.956; -452.166; -400.701
473.972;  123.442; -230.174; -131.687
474.258;  -95.541; -925.173; -843.689
474.544;  392.879; -183.178;   -2.679
474.830;  589.021;  -65.175;   45.316
475.116;  857.319; -123.190; -196.658
475.401; 1091.856; -558.180; -467.676
475.687;  308.354; -725.180; -718.676
475.973;  -11.165; -673.181; -770.673
476.259;  453.325;  736.825;  764.315
476.544;  677.305; -539.176; -437.682
476.830; 1488.670; -398.172; -322.690
477.116; 1313.003; -430.177; -336.682
477.401;  293.955;  346.820;  358.324
477.687;   -2.181; -289.175; -405.684
477.973;   77.840;   21.819;   28.326
478.258;  -10.011; -448.163; -348.706
478.544;   89.682;   21.815;   61.334
478.829;  -82.615; -818.171; -738.692
479.115; -107.331; -749.172; -651.690
479.401;  -16.965; -444.174; -449.686
479.686;   47.553; -253.180;  -74.676
479.972;  -71.913; -886.178; -776.680
480.257;   81.749; -258.166;  -65.700
480.542;   -4.509; -614.170; -469.693
480.828;  492.616; 1288.824; 1392.317
481.113;  -54.288; -464.176; -426.683
481.399;  -25.972; -236.161; -202.711
481.684;  -79.952; -620.166; -462.700
481.969;   42.749; -158.159;  -73.713
482.255;  -12.991; -439.169; -285.695
482.540;  -33.513; -569.178; -441.680
482.825;   12.456; -395.187; -404.663
483.110;  194.514;  -85.169; -105.696
483.396;  320.284; -840.157; -652.718
483.681;  924.042;  543.826;  730.313
483.966;  284.340; -696.160; -700.712
484.251;   15.641; -404.174; -310.687
484.536;   20.865; -356.165; -378.703
484.822;   23.545; -205.173; -218.687
485.107;  -37.554; -599.152; -502.726
485.392;  294.074;  662.836;  541.296
485.677;  155.430;  354.832;  163.302
485.962;  239.280;  160.843;  270.283
486.247;  157.602;  -14.162;   -8.707
486.532;   88.650; -178.166; -325.701
486.817;  303.519;  381.839;  431.291
487.102;  192.318; -453.154; -514.722
487.387; 1254.287; -637.156; -652.718
487.672; 2038.683; -154.164;  -38.705
487.957; 1391.230; -394.160; -286.711
488.241;  377.073; -290.150; -314.729
488.526; 1388.948; -280.152; -148.726
488.811; 2096.890; -881.177; -818.680
489.096; 1589.723; -666.154; -702.723
489.381;  885.542;    3.847;  162.275
489.666;  702.427; -428.161; -510.710
489.950;  371.428;  558.846;  627.277
490.235;  -54.635; -480.151; -458.728
490.520;  -81.674; -756.161; -723.710
490.804;  -99.710; -827.156; -736.719
491.089;   30.698; -469.149; -299.732
491.374;  113.380; -132.164;  -75.704
491.658;   -7.484; -817.147; -717.735
491.943;  266.055; -657.152; -609.727
492.227;  385.312; -178.155;  -38.721
492.512;   97.079; -294.157; -341.717
492.797; -131.512; -713.149; -716.731
493.081; -109.979; -588.147; -598.735
493.366;  -62.872; -751.161; -635.711
493.650;  441.307;  831.859;  917.254
493.935;   38.116; -648.147; -447.734
494.219;  -65.214; -778.142; -687.743
494.503;  -68.620; -585.150; -487.730
494.788;  123.666;   46.842;   74.285
495.072;  214.975;  184.850;  434.271
495.356;  305.603; -463.148; -343.733
495.641;  718.132; -812.146; -736.736
495.925;  638.698; -976.156; -903.719
496.209;   62.797; -599.149; -451.732
496.494;  -47.413; -763.142; -544.744
496.778;   25.518; -364.154; -360.722
497.062; -106.102; -819.156; -627.719
497.346;  -55.567; -869.160; -640.711
497.631;  305.409;  580.852;  560.266
497.915;  144.848;  -64.145;  175.261
498.199;   67.984; -341.157; -277.718
498.483;   65.645; -562.152; -508.725
498.767;  335.577;  301.850;  300.271
499.051;  347.493; -126.149; -100.732
499.335;   59.090; -693.149; -739.731
499.619;  -62.930; -381.129; -423.767
499.903;   87.709; -272.155;  -65.721
500.187;   40.730; -588.153; -316.724
500.471;   10.654; -796.152; -595.727
500.755;  190.726;   62.839;  -96.710
501.039;   52.710; -270.155; -357.721
501.323;  154.109;  -21.141;  264.254
501.607;   62.890; -447.163; -503.706
501.891;   -7.713; -607.156; -512.718
502.174;  -75.433; -726.144; -585.741
502.458;  138.860;   89.849;  370.273
502.742;  115.248; -180.138; -191.751
503.026;  219.315; -412.147; -254.734
503.310;  299.348; -437.159; -375.713
503.593;  188.018; -464.147; -325.735
503.877;  231.913; -232.133; -156.760
504.161;  300.634;    2.847;  -50.724
504.444;  206.270; -841.158; -710.716
504.728;  789.179; -487.164; -522.704
505.012; 1240.672; -257.150;  -76.729
505.295;  997.328; -417.161; -212.711
505.579;  955.997; -256.156; -496.719
505.862; 1447.943; -555.145; -333.738
506.146; 1308.852; -681.159; -758.714
506.429;  825.452;  568.841;  461.286
506.713;  104.167; -732.151; -667.728
506.996;  604.717;   90.846;  295.278
507.280;  626.271; -633.165; -474.703
507.563;  444.107; -469.155; -261.721
507.847;  215.431; -423.153; -112.724
508.130;  170.929; -665.161; -456.711
508.413;  236.942; -758.167; -577.700
508.697;  460.042; -151.167;   12.300
508.980;  265.733; -422.153; -312.724
509.263;    9.601; -466.155; -450.720
509.547;  101.871; -124.150;   82.271
509.830;   79.832; -172.160;  140.289
510.113;  214.797;  128.844;  298.281
510.396;   97.443; -530.152; -300.725
510.680;  180.545; -818.145; -812.738
510.963;  838.925;  184.846;  180.277
511.246;  645.084; -493.150; -357.730
511.529;  464.853; -482.145;  -83.739
511.812;  682.807; -250.134;   10.241
512.095;  457.662; -740.151; -396.728
512.378;  178.024; -317.147; -245.736
512.661;   62.560; -703.137; -623.753
512.944;   49.689; -750.142; -637.744
513.227;  132.056; -170.137; -171.752
513.510;   69.066; -479.144; -671.741
513.793;   48.016; -485.140; -435.747
514.076;  283.503;  -43.127;  -39.771
514.359;  184.498; -294.149; -135.732
514.642;  185.394; -442.142; -567.744
514.925; 1476.214;  581.860;  561.253
515.208; 1757.601; -498.134; -443.758
515.491; 1187.224; -276.133; -182.761
515.773;  697.172; -410.143; -337.742
516.056; 3927.670;  249.864;  409.246
516.339; 4812.477; -754.136; -652.755
516.622; 3217.480; -518.150; -488.730
516.904; 1811.484;  882.857;  975.257
517.187;  768.154; -730.138; -523.752
517.470;  623.582; -568.143; -510.743
517.752;  741.781; -624.136; -470.756
518.035;  628.033; -708.139; -725.749
518.318;  742.077; -799.136; -744.755
518.600; 4567.129; -300.132; -325.762
518.883; 5944.193;  310.858;   88.256
519.165; 2965.742; -585.138; -426.751
519.448;  669.429;  -61.132;  -19.762
519.730;  338.215; -573.126; -415.773
520.013;  567.017;  588.867;  664.240
520.295; 1201.010;  -94.134;  -15.759
520.578; 2501.250; -335.131; -305.764
520.860; 2820.929; -254.132;   56.238
521.143; 1575.985; -763.135; -584.756
521.425;  827.136; -251.125; -279.775
521.707; 1259.104; -622.127; -380.771
521.990; 3351.204; -199.127;  167.229
522.272; 3531.519; -116.140;   -4.748
522.554; 1645.674; -237.143; -157.742
522.836;  555.506;  -24.134;   99.241
523.119;  361.413; -496.148; -189.734
523.401;  240.261; -448.130; -314.766
523.683;  152.061; -865.137; -693.753
523.965;  557.850;  408.862;  260.248
524.247;  519.370;   54.878;  170.220
524.529;  385.510; -451.134; -367.759
524.812;  661.464;   -3.130;  191.234
525.094; 1659.649; -773.138; -631.751
525.376; 2464.151; -143.124;   78.223
525.658; 1521.372; -441.136; -339.754
525.940;   63.144; -805.131; -671.764
526.222;   46.478; -188.136;  -88.755
526.504;  170.341; -190.131;   32.237
526.786;  237.214; -960.133; -647.760
527.068;  425.759; -124.123;  -67.778
527.349;  149.267; -865.137; -774.754
527.631;  233.129; -137.132;   22.238
527.913;  255.702; -664.127; -450.771
528.195;  308.925; -761.125; -639.774
528.477;  439.302;  -93.134;  -30.758
528.759;  250.364; -648.130; -522.766
529.040;  127.257; -569.123; -293.778
529.322;  125.629; -235.125;  -10.774
529.604;  210.567;  -47.130;   93.233
529.886;  170.215; -546.126; -302.773
530.167;  225.654;  232.870;  192.235
530.449;  113.923;    1.853;   63.265
530.731;   80.069; -572.122; -459.779
531.012;  144.402; -513.120; -216.784
531.294;  163.065; -118.116;  -43.792
531.575;  383.136;  290.875;  538.225
531.857;  106.093; -548.135; -266.757
532.138;  272.207; -113.141;   40.254
532.420;  318.387;  294.865;  403.244
532.701;  313.818; -722.133; -751.760
532.983;  555.622;  232.867;  182.239
533.264;  226.312; -243.126;  175.228
533.546;  -56.922; -491.136; -508.755
533.827;  114.212;  173.867;   -1.759
534.109;   59.093; -352.135;  -80.757
534.390;  161.635; -725.132; -582.762
534.671;  392.287; -270.135;  -82.756
534.953;  224.162; -751.123; -611.779
535.234;   32.841; -426.117; -255.789
535.515; -153.684; -891.119; -735.785
535.796;   18.196; -431.128; -193.770
536.078; -225.750;-1050.124; -904.777
536.359;   51.563;  -22.123;    3.221
536.640;  -22.573; -480.125; -197.774
536.921;  309.576;  225.871;  143.232
537.202;  700.644;  -87.138;  -16.751
537.483;  815.649;  251.869;  377.236
537.764;  320.854;   17.870;   98.235
538.045;  -96.400; -543.134; -371.758
538.326;  -59.121; -596.129; -447.768
538.607;   49.205; -686.127; -476.771
538.888;  323.788;   98.879;    5.218
