
Integration time [ms]: 100.000
Averaging Nr. [scans]: 40
Smoothing Nr. [pixels]: 0
Data measured with spectrometer [name]: 2101013U2
Wave   ;Sample   ;Dark     ;Reference
[nm]   ;[counts] ;[counts] ;[counts] 

394.013;   82.724; -450.257; -315.536
394.305;  271.397; -461.258; -419.536
394.596; 1069.493; -676.269; -527.514
394.887; 2527.110; -796.268; -654.518
395.178;  953.216;  145.736;   11.476
395.470;   98.077; -210.263; -356.526
395.761;  243.775;  305.734;  394.479
396.052;  473.967; -545.284; -306.489
396.343;  461.512; -557.276; -454.503
396.634;  150.131; -200.279; -290.497
396.926;  164.282; -618.268; -565.517
397.217;  139.367;   11.725;  -17.504
397.508;   77.933; -366.273; -154.507
397.799;   63.931; -555.279; -571.497
398.090;   26.875; -973.280; -902.495
398.381;  160.266;   11.708;  -11.473
398.672;   26.967; -585.292; -742.473
398.963;   77.487; -348.279; -373.498
399.254;  124.151;   54.709; -209.475
399.545;   -6.303;-1017.266; -883.520
399.836;   89.651; -407.277; -343.501
400.127;   42.667; -205.295; -209.468
400.418;   82.702; -423.274; -392.506
400.709;   96.487; -359.281; -333.493
401.000;   86.980; -268.291; -309.476
401.290;  119.503;  225.698;  115.545
401.581;   75.974; -166.286; -228.485
401.872;   39.039; -542.298; -486.462
402.163;   57.260; -313.296; -252.467
402.454;  108.202; -123.291; -163.475
402.744;  114.551; -844.297; -813.465
403.035;  550.132; -226.293;  -86.471
403.326;  739.020; -366.292; -384.474
403.617;  430.358;  204.701;  165.539
403.907;  264.073; -593.283; -679.490
404.198; 2242.932; -545.307; -599.446
404.489; 6011.128; -618.283; -588.491
404.779; 2081.082; -618.302; -660.456
405.070;  237.635;  -67.304; -174.451
405.360;  339.959; -259.293; -238.472
405.651;  354.543;  125.699;   98.542
405.942;  215.320;  209.714;  127.516
406.232;  388.709; -432.285; -413.487
406.523;  595.352;  641.706;  758.530
406.813;  139.572; -579.286; -644.484
407.104;  434.940;  261.708;  144.527
407.394;  266.110; -604.299; -591.462
407.685;  174.883;  336.715;  222.513
407.975;   87.801; -400.283; -382.490
408.265;  144.667; -134.289; -190.478
408.556;   88.099; -472.291; -459.475
408.846;  169.078;  474.706;  429.530
409.137;   89.175;   -1.288; -216.480
409.427;   59.234; -193.285; -271.487
409.717;   51.486; -776.273; -692.508
410.007;  155.503;    4.715; -170.486
410.298;  113.470; -360.295; -342.469
410.588;   80.031; -495.285; -510.486
410.878;   69.511; -792.287; -873.482
411.168;  134.491; -481.298; -478.463
411.459;  136.696; -295.283; -242.489
411.749;   72.698; -609.292; -507.474
412.039;   91.323; -755.289; -386.480
412.329;  220.619;   40.722;  132.501
412.619;  226.972;  -62.286; -148.485
412.909;  395.145;  639.711;  594.521
413.199;  387.800; -130.280; -251.495
413.490;  433.335;  521.710;  352.523
413.780;  153.354;-1013.279; -913.496
414.070;  347.263;  -46.276;  235.497
414.360;  431.640; -729.278; -666.498
414.650;  450.632; -726.288; -688.482
414.940;  541.179; -538.280; -441.496
415.230;  925.029;   50.712;   74.519
415.520; 5875.692;  155.730;   66.486
415.809;23258.937; -305.281; -125.493
416.099;17418.704; -388.277; -229.501
416.389; 4754.325;  435.726;  236.494
416.679; 2765.931;   91.738;   85.473
416.969;  504.816; -527.287; -503.483
417.259;  488.281;  341.721;  171.503
417.549;  693.260;  522.718;  318.508
417.838; 1565.210; -205.268; -147.518
418.128; 5110.165;  650.710;  492.522
418.418; 4207.668; -491.272; -579.509
418.708; 2869.000;    9.726;  -48.506
418.997;10810.721; -474.275; -480.505
419.287;11025.207; -733.273; -790.507
419.577;10203.470; -160.283; -123.489
419.866;34493.952; -588.277; -498.501
420.156;35859.313; -242.270;  -55.513
420.446; 6398.348; -112.263;  -26.526
420.735;  986.982; -376.271; -446.512
421.025;  838.089; 1830.722;  315.502
421.314;  848.780; -203.271; -226.512
421.604; 1917.952;   89.732;  233.484
421.893; 1100.827; -705.271; -602.511
422.183;  248.298; -487.263; -461.526
422.472;  418.503;  -36.271; -107.511
422.762;  503.878; -416.266; -379.521
423.051;  276.914; -916.276; -916.503
423.341;  362.334; -491.273; -439.507
423.630;  461.284; -121.265;   15.477
423.919;  398.170;   58.725;   49.495
424.209;  386.179;  -31.263;   56.473
424.498;  516.907;   68.732;  161.483
424.787; 1068.388; -535.267; -601.518
425.077; 3303.957;   34.735;   29.478
425.366; 5030.535; -734.262; -744.528
425.655; 9135.085;  639.727;  259.493
425.945;18660.940; -313.247; -268.554
426.234;10236.858;  117.741;  300.467
426.523; 4880.363;  -86.259; -350.534
426.812; 6591.598;  107.734;  159.480
427.101; 9645.174; -127.269; -323.515
427.390;12310.767;  -55.270;  -86.514
427.680; 3185.308; -624.257; -411.538
427.969;  542.994; -330.255; -301.540
428.258;  367.974; -385.257; -477.536
428.547;  586.797;  449.728;  397.490
428.836; 1527.360; -421.253; -398.543
429.125; 2173.565; -199.259;  -72.534
429.414;  905.033; -330.251; -294.548
429.703; 2956.783; -231.251; -213.548
429.992; 8821.261; -938.250; -828.549
430.281; 5656.066; -397.264; -331.524
430.570;  640.498;  -21.252;   32.454
430.859;  705.562;  279.741;  352.466
431.148;  514.536;  636.752;  631.446
431.437;  316.173;  391.748;  367.454
431.725;  176.176; -544.257; -481.536
432.014;  143.317; -845.253; -756.545
432.303;  439.637; -149.239; -105.569
432.592;  721.023; -460.263; -178.525
432.881; 1026.987; -601.248; -437.554
433.169; 5696.469; -343.255;  -61.540
433.458;11545.396;  445.765;  540.424
433.747; 4911.140; -397.261; -289.529
434.036; 1039.713; -275.242; -280.564
434.324; 2038.599; -395.249; -379.551
434.613; 3466.531;   40.757;  159.437
434.902; 1243.052;  333.760;  439.433
435.190;  815.961;   75.761;  295.431
435.479;  437.988;  -52.245;   83.441
435.767;  167.821; -411.244; -427.561
436.056;  286.858; -340.242; -294.563
436.345;  386.129; -372.240; -223.568
436.633;  405.894;   60.750;  383.450
436.922;  351.882;  208.760;  414.432
437.210;  853.636; -194.236;    1.426
437.499; 2838.969; -583.235; -432.576
437.787; 3099.885; -339.236;  -10.574
438.075;  701.466;   56.761;  162.430
438.364; 1010.869;  -44.238;  250.429
438.652;  622.574; -286.226; -138.592
438.941;  180.513;    3.770;  269.415
439.229;   44.170; -665.252; -466.545
439.517;   65.752; -160.234;  -85.577
439.806;   22.265; -501.225; -290.595
440.094;  211.060;  377.766;  650.421
440.382;  288.489; -653.233; -302.580
440.670;  283.644; -361.235; -285.576
440.959;   47.433; -347.223; -170.599
441.247;  100.850; -151.229; -109.587
441.535;  140.626; -266.235;   31.423
441.823;   59.957; -497.234; -305.578
442.111;  208.004;  173.771;  327.412
442.400;  691.112; -628.245; -335.559
442.688; 1948.160; -111.234; -620.579
442.976; 1454.196; -786.213; -450.617
443.264;  155.597; -324.224; -364.597
443.552;  142.076; -258.226;   51.408
443.840;  192.300;  602.765;  876.423
444.128;  119.963;  265.767;  269.420
444.416;   23.707; -694.228; -312.588
444.704;   45.938; -465.219;  -92.605
444.992;   92.128;   -0.226;  240.407
445.280;   81.139; -517.230;  -94.585
445.568;   84.875; -694.212; -396.618
445.856;  444.047; -174.221;  357.398
446.143; 1053.634;  -54.220;   -7.604
446.431;  840.060;  -25.228;  625.411
446.719;  282.032;  489.783;  675.391
447.007;  204.983;  481.769;  705.416
447.295;  177.580;  597.777;  871.402
447.583;  114.197; -464.229;  -34.587
447.870;  194.094; -434.221; -202.601
448.158;  514.988; -104.230;  129.415
448.446;  409.635; -800.219; -338.604
448.733;  200.348;   13.776;  269.403
449.021;  297.700;   60.788;  341.382
449.309;  189.640; -296.210;  208.379
449.596;  231.503;  128.783;   59.392
449.884;  180.687; -571.222; -325.600
450.172;  163.366; -756.227; -406.590
450.459;  409.104;  645.786;  780.387
450.747; 2109.702; -411.218; -147.608
451.034; 6795.536;  493.772;  889.411
451.322; 5465.183; -413.214; -170.614
451.609;  478.375;  292.777;  508.403
451.897;  556.903; -550.203; -183.634
452.184; 1660.705; -622.223; -400.598
452.472; 1583.536;   97.792;  269.375
452.759;  368.086;  512.781;  864.395
453.047;  154.447; -407.212; -125.617
453.334;  124.319; -732.219; -216.606
453.621;  122.060; -438.214; -161.615
453.909;  144.870;   13.796;  384.368
454.196;  132.891; -299.199; -123.641
454.483;  247.641;  317.798;  540.364
454.771;  156.439; -215.208;  196.374
455.058;   52.693; -316.207;  102.374
455.345;  113.471;   71.807;  344.347
455.632;   86.696; -128.207;  235.373
455.919;   54.438;  -82.196;  182.354
456.207;  -43.180; -774.198; -450.642
456.494;   10.578; -475.200;  -66.639
456.781;   32.237; -399.202; -198.635
457.068;   65.177; -253.206;  -29.628
457.355;   12.504; -698.206; -401.629
457.642;   21.734; -552.205; -290.630
457.929;   15.762; -778.194; -417.651
458.216;   72.447; -575.212; -354.617
458.503;  209.342; -173.193;  -19.652
458.790;  215.312; -864.208; -630.625
459.077;  278.392;  -77.202;  110.364
459.364;  744.305; -350.195; -210.649
459.651; 1584.600;  -46.206;  220.372
459.938;  726.702; -864.209; -665.623
460.225;  186.870;  132.799;  276.363
460.512;  -25.564; -836.197; -688.645
460.799;  131.551;  -32.218;  320.392
461.086;  112.558; -370.200; -251.640
461.372;   77.771; -509.198; -279.642
461.659;  143.790; -165.196;  108.354
461.946;   83.841; -445.193;  -54.651
462.233;  267.156;  842.800;  888.361
462.519;  348.427; -814.201; -464.639
462.806;  979.961; -768.197; -497.645
463.093;  802.861; -445.191;  -66.656
463.380;  -18.747; -920.186; -824.664
463.666;   76.138; -259.197;  -18.646
463.953;  102.075; -406.195; -243.648
464.239;  188.050; -173.195;  -77.648
464.526;  413.411;  413.806;  743.350
464.813;  392.173; -565.190; -304.658
465.099;  394.442;  606.807;  607.348
465.386;  374.396;  903.807;  921.348
465.672;   70.861; -694.197; -522.645
465.959;   51.366; -598.188; -520.662
466.245;   30.396; -468.193; -359.652
466.532;  128.248; -109.195;   63.352
466.818;  116.378; -357.186; -216.664
467.104;   19.818; -488.182; -415.672
467.391;  -10.025; -628.189; -459.658
467.677;   44.556; -289.186;    9.335
467.964;   33.357; -682.189; -471.660
468.250;  103.534; -331.186; -160.665
468.536;   99.551;   90.811;  180.341
468.822;  -22.154; -821.184; -574.668
469.109;  159.000;  351.827;  471.311
469.395;  201.380;  729.808;  787.346
469.681;  204.104;   46.811;  156.341
469.967; 1144.259; -699.188; -382.660
470.254; 2500.417; -494.188; -306.662
470.540; 1553.488; -601.196; -476.646
470.826;  228.479; -488.181; -397.675
471.112;  282.725;  288.816;  113.331
471.398;  108.179; -253.183;  -58.670
471.684;   48.158; -626.177; -447.680
471.970;   12.383; -918.180; -981.675
472.256;   32.429; -521.192; -441.654
472.542;   48.011; -499.171; -434.691
472.828;   39.364; -743.182; -607.672
473.114;   47.054; -380.166; -283.700
473.400;   39.975; -504.175; -293.684
473.686;   73.786; -452.166; -400.701
473.972;   69.239; -230.174; -131.687
474.258;  -32.600; -925.173; -843.689
474.544;  170.800; -183.178;   -2.679
474.830;  276.701;  -65.175;   45.316
475.116;  406.575; -123.190; -196.658
475.401;  574.086; -558.180; -467.676
475.687;  186.460; -725.180; -718.676
475.973;   50.972; -673.181; -770.673
476.259;  274.803;  736.825;  764.315
476.544;  366.966; -539.176; -437.682
476.830;  707.732; -398.172; -322.690
477.116;  582.615; -430.177; -336.682
477.401;  129.535;  346.820;  358.324
477.687;   -4.750; -289.175; -405.684
477.973;   32.451;   21.819;   28.326
478.258;    2.056; -448.163; -348.706
478.544;   67.189;   21.815;   61.334
478.829;  -40.484; -818.171; -738.692
479.115;  -18.319; -749.172; -651.690
479.401;   -3.315; -444.174; -449.686
479.686;   30.909; -253.180;  -74.676
479.972;  -32.870; -886.178; -776.680
480.257;   44.131; -258.166;  -65.700
480.542;    6.320; -614.170; -469.693
480.828;  225.973; 1288.824; 1392.317
481.113;  -23.604; -464.176; -426.683
481.399;  -11.445; -236.161; -202.711
481.684;  -38.095; -620.166; -462.700
481.969;   15.044; -158.159;  -73.713
482.255;   -3.744; -439.169; -285.695
482.540;   14.755; -569.178; -441.680
482.825;    4.148; -395.187; -404.663
483.110;   94.684;  -85.169; -105.696
483.396;  144.466; -840.157; -652.718
483.681;  431.014;  543.826;  730.313
483.966;  120.663; -696.160; -700.712
484.251;   13.938; -404.174; -310.687
484.536;   16.041; -356.165; -378.703
484.822;   11.641; -205.173; -218.687
485.107;  -20.996; -599.152; -502.726
485.392;  122.647;  662.836;  541.296
485.677;   75.994;  354.832;  163.302
485.962;  104.388;  160.843;  270.283
486.247;  104.339;  -14.162;   -8.707
486.532;   54.457; -178.166; -325.701
486.817;  156.825;  381.839;  431.291
487.102;  115.662; -453.154; -514.722
487.387;  566.792; -637.156; -652.718
487.672;  996.252; -154.164;  -38.705
487.957;  622.057; -394.160; -286.711
488.241;  178.371; -290.150; -314.729
488.526;  623.205; -280.152; -148.726
488.811; 1029.832; -881.177; -818.680
489.096;  793.115; -666.154; -702.723
489.381;  449.277;    3.847;  162.275
489.666;  322.030; -428.161; -510.710
489.950;  160.643;  558.846;  627.277
490.235;  -17.459; -480.151; -458.728
490.520;  -25.046; -756.161; -723.710
490.804;  -44.456; -827.156; -736.719
491.089;   12.087; -469.149; -299.732
491.374;   33.951; -132.164;  -75.704
491.658;    6.198; -817.147; -717.735
491.943;  198.285; -657.152; -609.727
492.227;  295.208; -178.155;  -38.721
492.512;   66.763; -294.157; -341.717
492.797;  -49.319; -713.149; -716.731
493.081;  -41.699; -588.147; -598.735
493.366;  -24.069; -751.161; -635.711
493.650;  197.930;  831.859;  917.254
493.935;   22.048; -648.147; -447.734
494.219;  -31.283; -778.142; -687.743
494.503;  -44.849; -585.150; -487.730
494.788;   41.979;   46.842;   74.285
495.072;  100.247;  184.850;  434.271
495.356;  177.840; -463.148; -343.733
495.641;  479.733; -812.146; -736.736
495.925;  470.049; -976.156; -903.719
496.209;   46.611; -599.149; -451.732
496.494;  -23.583; -763.142; -544.744
496.778;   30.512; -364.154; -360.722
497.062;  -44.376; -819.156; -627.719
497.346;  -28.691; -869.160; -640.711
497.631;  124.144;  580.852;  560.266
497.915;   81.743;  -64.145;  175.261
498.199;   69.166; -341.157; -277.718
498.483;   52.179; -562.152; -508.725
498.767;  170.148;  301.850;  300.271
499.051;  158.359; -126.149; -100.732
499.335;   23.982; -693.149; -739.731
499.619;  -24.844; -381.129; -423.767
499.903;   44.531; -272.155;  -65.721
500.187;   51.094; -588.153; -316.724
500.471;   34.559; -796.152; -595.727
500.755;  122.879;   62.839;  -96.710
501.039;   39.782; -270.155; -357.721
501.323;  100.156;  -21.141;  264.254
501.607;   69.407; -447.163; -503.706
501.891;   14.917; -607.156; -512.718
502.174;  -14.195; -726.144; -585.741
502.458;   87.438;   89.849;  370.273
502.742;   41.105; -180.138; -191.751
503.026;   85.747; -412.147; -254.734
503.310;  157.143; -437.159; -375.713
503.593;  104.649; -464.147; -325.735
503.877;  130.621; -232.133; -156.760
504.161;  204.122;    2.847;  -50.724
504.444;  124.507; -841.158; -710.716
504.728;  394.925; -487.164; -522.704
505.012;  621.745; -257.150;  -76.729
505.295;  495.755; -417.161; -212.711
505.579;  470.274; -256.156; -496.719
505.862;  629.390; -555.145; -333.738
506.146;  624.945; -681.159; -758.714
506.429;  343.896;  568.841;  461.286
506.713;   45.842; -732.151; -667.728
506.996;  284.686;   90.846;  295.278
507.280;  291.420; -633.165; -474.703
507.563;  213.030; -469.155; -261.721
507.847;   86.720; -423.153; -112.724
508.130;   68.781; -665.161; -456.711
508.413;   89.826; -758.167; -577.700
508.697;  212.302; -151.167;   12.300
508.980;  133.346; -422.153; -312.724
509.263;  -10.149; -466.155; -450.720
509.547;   40.470; -124.150;   82.271
509.830;   47.558; -172.160;  140.289
510.113;   90.399;  128.844;  298.281
510.396;   24.877; -530.152; -300.725
510.680;  259.941; -818.145; -812.738
510.963;  877.266;  184.846;  180.277
511.246;  834.953; -493.150; -357.730
511.529;  287.246; -482.145;  -83.739
511.812;  317.467; -250.134;   10.241
512.095;  219.614; -740.151; -396.728
512.378;   81.003; -317.147; -245.736
512.661;   11.138; -703.137; -623.753
512.944;   23.569; -750.142; -637.744
513.227;   54.635; -170.137; -171.752
513.510;   40.479; -479.144; -671.741
513.793;   39.786; -485.140; -435.747
514.076;  149.727;  -43.127;  -39.771
514.359;  102.412; -294.149; -135.732
514.642;   82.972; -442.142; -567.744
514.925;  650.559;  581.860;  561.253
515.208;  847.139; -498.134; -443.758
515.491;  564.253; -276.133; -182.761
515.773;  318.733; -410.143; -337.742
516.056; 1763.519;  249.864;  409.246
516.339; 2522.623; -754.136; -652.755
516.622; 2017.400; -518.150; -488.730
516.904; 1647.715;  882.857;  975.257
517.187;  768.934; -730.138; -523.752
517.470;  408.814; -568.143; -510.743
517.752;  383.051; -624.136; -470.756
518.035;  290.021; -708.139; -725.749
518.318;  296.323; -799.136; -744.755
518.600; 2008.131; -300.132; -325.762
518.883; 2814.896;  310.858;   88.256
519.165; 1357.927; -585.138; -426.751
519.448;  402.131;  -61.132;  -19.762
519.730;  235.710; -573.126; -415.773
520.013;  354.474;  588.867;  664.240
520.295; 1129.344;  -94.134;  -15.759
520.578; 2542.669; -335.131; -305.764
520.860; 2794.856; -254.132;   56.238
521.143; 1386.753; -763.135; -584.756
521.425;  462.123; -251.125; -279.775
521.707;  612.778; -622.127; -380.771
521.990; 1523.353; -199.127;  167.229
522.272; 1747.112; -116.140;   -4.748
522.554;  880.409; -237.143; -157.742
522.836;  443.342;  -24.134;   99.241
523.119;  255.171; -496.148; -189.734
523.401;  171.626; -448.130; -314.766
523.683;   79.713; -865.137; -693.753
523.965;  235.257;  408.862;  260.248
524.247;  234.694;   54.878;  170.220
524.529;  190.669; -451.134; -367.759
524.812;  324.328;   -3.130;  191.234
525.094;  719.131; -773.138; -631.751
525.376; 1151.357; -143.124;   78.223
525.658;  678.546; -441.136; -339.754
525.940;   18.441; -805.131; -671.764
526.222;   65.249; -188.136;  -88.755
526.504;  161.789; -190.131;   32.237
526.786;  262.172; -960.133; -647.760
527.068;  418.813; -124.123;  -67.778
527.349;  196.117; -865.137; -774.754
527.631;  139.256; -137.132;   22.238
527.913;  119.252; -664.127; -450.771
528.195;  134.191; -761.125; -639.774
528.477;  212.439;  -93.134;  -30.758
528.759;  105.353; -648.130; -522.766
529.040;   46.111; -569.123; -293.778
529.322;   55.594; -235.125;  -10.774
529.604;  169.055;  -47.130;   93.233
529.886;  175.410; -546.126; -302.773
530.167;  156.597;  232.870;  192.235
530.449;   63.477;    1.853;   63.265
530.731;    9.043; -572.122; -459.779
531.012;   48.564; -513.120; -216.784
531.294;   64.454; -118.116;  -43.792
531.575;  131.973;  290.875;  538.225
531.857;   38.734; -548.135; -266.757
532.138;   94.130; -113.141;   40.254
532.420;  199.005;  294.865;  403.244
532.701;  287.199; -722.133; -751.760
532.983;  406.227;  232.867;  182.239
533.264;  155.858; -243.126;  175.228
533.546;  -34.126; -491.136; -508.755
533.827;   61.220;  173.867;   -1.759
534.109;   55.884; -352.135;  -80.757
534.390;  123.135; -725.132; -582.762
534.671;  250.005; -270.135;  -82.756
534.953;  143.864; -751.123; -611.779
535.234;   29.314; -426.117; -255.789
535.515;  -73.752; -891.119; -735.785
535.796;   -6.627; -431.128; -193.770
536.078; -114.793;-1050.124; -904.777
536.359;   13.265;  -22.123;    3.221
536.640;   -7.608; -480.125; -197.774
536.921;  159.060;  225.871;  143.232
537.202;  345.578;  -87.138;  -16.751
537.483;  407.294;  251.869;  377.236
537.764;  147.622;   17.870;   98.235
538.045;  -34.887; -543.134; -371.758
538.326;  -31.863; -596.129; -447.768
538.607;   18.154; -686.127; -476.771
538.888;  163.805;   98.879;    5.218
