
Integration time [ms]: 200.000
Averaging Nr. [scans]: 10
Smoothing Nr. [pixels]: 0
Data measured with spectrometer [name]: 2101013U2
Wave   ;Sample   ;Dark     ;Reference
[nm]   ;[counts] ;[counts] ;[counts] 

394.013;   80.623; -450.257; -315.536
394.305;  365.420; -461.258; -419.536
394.596; 2110.870; -676.269; -527.514
394.887; 5307.695; -796.268; -654.518
395.178; 2037.139;  145.736;   11.476
395.470;  126.455; -210.263; -356.526
395.761;  359.116;  305.734;  394.479
396.052;  564.188; -545.284; -306.489
396.343;  558.490; -557.276; -454.503
396.634;  167.945; -200.279; -290.497
396.926;  141.491; -618.268; -565.517
397.217;  212.797;   11.725;  -17.504
397.508;   74.420; -366.273; -154.507
397.799;   38.345; -555.279; -571.497
398.090;  -70.364; -973.280; -902.495
398.381;  190.979;   11.708;  -11.473
398.672;  -45.619; -585.292; -742.473
398.963;   55.753; -348.279; -373.498
399.254;  178.894;   54.709; -209.475
399.545;  -94.489;-1017.266; -883.520
399.836;   74.574; -407.277; -343.501
400.127;  101.845; -205.295; -209.468
400.418;   38.512; -423.274; -392.506
400.709;   90.618; -359.281; -333.493
401.000;   93.100; -268.291; -309.476
401.290;  206.853;  225.698;  115.545
401.581;   95.963; -166.286; -228.485
401.872;   24.404; -542.298; -486.462
402.163;  132.834; -313.296; -252.467
402.454;  186.895; -123.291; -163.475
402.744;   77.221; -844.297; -813.465
403.035;  617.567; -226.293;  -86.471
403.326;  753.585; -366.292; -384.474
403.617;  626.196;  204.701;  165.539
403.907;  435.197; -593.283; -679.490
404.198; 4473.986; -545.307; -599.446
404.489;11644.504; -618.283; -588.491
404.779; 3835.458; -618.302; -660.456
405.070;  440.727;  -67.304; -174.451
405.360;  625.870; -259.293; -238.472
405.651;  679.274;  125.699;   98.542
405.942;  311.456;  209.714;  127.516
406.232;  333.978; -432.285; -413.487
406.523;  755.959;  641.706;  758.530
406.813;  137.860; -579.286; -644.484
407.104;  562.278;  261.708;  144.527
407.394;  197.798; -604.299; -591.462
407.685;  333.376;  336.715;  222.513
407.975;  102.002; -400.283; -382.490
408.265;  187.416; -134.289; -190.478
408.556;   73.591; -472.291; -459.475
408.846;  366.560;  474.706;  429.530
409.137;  143.128;   -1.288; -216.480
409.427;   87.377; -193.285; -271.487
409.717;   62.024; -776.273; -692.508
410.007;  205.468;    4.715; -170.486
410.298;  144.949; -360.295; -342.469
410.588;   93.873; -495.285; -510.486
410.878;   14.845; -792.287; -873.482
411.168;  172.408; -481.298; -478.463
411.459;  183.094; -295.283; -242.489
411.749;   98.689; -609.292; -507.474
412.039;   69.326; -755.289; -386.480
412.329;  394.264;   40.722;  132.501
412.619;  346.760;  -62.286; -148.485
412.909;  677.220;  639.711;  594.521
413.199;  527.237; -130.280; -251.495
413.490;  714.406;  521.710;  352.523
413.780;  225.343;-1013.279; -913.496
414.070;  567.091;  -46.276;  235.497
414.360;  600.058; -729.278; -666.498
414.650;  708.339; -726.288; -688.482
414.940;  899.942; -538.280; -441.496
415.230; 1619.934;   50.712;   74.519
415.520;11184.269;  155.730;   66.486
415.809;43450.817; -305.281; -125.493
416.099;34968.877; -388.277; -229.501
416.389; 9626.108;  435.726;  236.494
416.679; 5771.361;   91.738;   85.473
416.969; 1013.651; -527.287; -503.483
417.259; 1121.845;  341.721;  171.503
417.549; 1302.215;  522.718;  318.508
417.838; 2999.594; -205.268; -147.518
418.128;10143.514;  650.710;  492.522
418.418; 8589.733; -491.272; -579.509
418.708; 5631.909;    9.726;  -48.506
418.997;21426.702; -474.275; -480.505
419.287;22801.118; -733.273; -790.507
419.577;21371.193; -160.283; -123.489
419.866;64329.274; -588.277; -498.501
420.156;64290.863; -242.270;  -55.513
420.446;13040.550; -112.263;  -26.526
420.735; 1382.855; -376.271; -446.512
421.025; 1570.257; 1830.722;  315.502
421.314; 1058.852; -203.271; -226.512
421.604; 1870.883;   89.732;  233.484
421.893; 1091.047; -705.271; -602.511
422.183;  404.650; -487.263; -461.526
422.472;  708.749;  -36.271; -107.511
422.762;  714.420; -416.266; -379.521
423.051;  347.792; -916.276; -916.503
423.341;  471.721; -491.273; -439.507
423.630;  679.429; -121.265;   15.477
423.919;  654.701;   58.725;   49.495
424.209;  659.958;  -31.263;   56.473
424.498;  879.690;   68.732;  161.483
424.787; 1874.399; -535.267; -601.518
425.077; 5773.126;   34.735;   29.478
425.366; 7354.866; -734.262; -744.528
425.655;17234.422;  639.727;  259.493
425.945;40005.253; -313.247; -268.554
426.234;22880.399;  117.741;  300.467
426.523; 9055.306;  -86.259; -350.534
426.812;12549.614;  107.734;  159.480
427.101;18305.878; -127.269; -323.515
427.390;22905.469;  -55.270;  -86.514
427.680; 4490.735; -624.257; -411.538
427.969;  808.051; -330.255; -301.540
428.258;  518.823; -385.257; -477.536
428.547;  895.539;  449.728;  397.490
428.836; 1690.474; -421.253; -398.543
429.125; 2397.509; -199.259;  -72.534
429.414; 1257.107; -330.251; -294.548
429.703; 5486.307; -231.251; -213.548
429.992;16742.812; -938.250; -828.549
430.281;11299.439; -397.264; -331.524
430.570; 1047.293;  -21.252;   32.454
430.859;  925.506;  279.741;  352.466
431.148;  785.447;  636.752;  631.446
431.437;  580.293;  391.748;  367.454
431.725;  234.625; -544.257; -481.536
432.014;  187.785; -845.253; -756.545
432.303;  627.257; -149.239; -105.569
432.592;  867.249; -460.263; -178.525
432.881; 1773.549; -601.248; -437.554
433.169;11103.452; -343.255;  -61.540
433.458;22887.806;  445.765;  540.424
433.747; 9731.274; -397.261; -289.529
434.036; 1390.722; -275.242; -280.564
434.324; 3611.130; -395.249; -379.551
434.613; 6466.713;   40.757;  159.437
434.902; 2194.243;  333.760;  439.433
435.190;  757.355;   75.761;  295.431
435.479;  455.086;  -52.245;   83.441
435.767;  149.998; -411.244; -427.561
436.056;  351.816; -340.242; -294.563
436.345;  638.546; -372.240; -223.568
436.633;  691.624;   60.750;  383.450
436.922;  440.950;  208.760;  414.432
437.210;  714.092; -194.236;    1.426
437.499; 2096.004; -583.235; -432.576
437.787; 2411.691; -339.236;  -10.574
438.075;  655.464;   56.761;  162.430
438.364;  925.867;  -44.238;  250.429
438.652;  555.919; -286.226; -138.592
438.941;  221.467;    3.770;  269.415
439.229;  -14.111; -665.252; -466.545
439.517;   70.116; -160.234;  -85.577
439.806;  -23.058; -501.225; -290.595
440.094;  304.427;  377.766;  650.421
440.382;  216.532; -653.233; -302.580
440.670;  251.003; -361.235; -285.576
440.959;    2.767; -347.223; -170.599
441.247;  127.484; -151.229; -109.587
441.535;  132.913; -266.235;   31.423
441.823;    8.523; -497.234; -305.578
442.111;  312.690;  173.771;  327.412
442.400;  675.085; -628.245; -335.559
442.688; 1668.426; -111.234; -620.579
442.976; 1086.095; -786.213; -450.617
443.264;  109.252; -324.224; -364.597
443.552;  161.921; -258.226;   51.408
443.840;  314.011;  602.765;  876.423
444.128;  204.631;  265.767;  269.420
444.416;  -65.106; -694.228; -312.588
444.704;   39.610; -465.219;  -92.605
444.992;  112.825;   -0.226;  240.407
445.280;   46.468; -517.230;  -94.585
445.568;   45.700; -694.212; -396.618
445.856;  457.387; -174.221;  357.398
446.143;  896.005;  -54.220;   -7.604
446.431;  763.899;  -25.228;  625.411
446.719;  409.638;  489.783;  675.391
447.007;  334.560;  481.769;  705.416
447.295;  328.363;  597.777;  871.402
447.583;  106.480; -464.229;  -34.587
447.870;  174.883; -434.221; -202.601
448.158;  508.266; -104.230;  129.415
448.446;  369.407; -800.219; -338.604
448.733;  227.754;   13.776;  269.403
449.021;  397.999;   60.788;  341.382
449.309;  278.221; -296.210;  208.379
449.596;  351.933;  128.783;   59.392
449.884;  215.073; -571.222; -325.600
450.172;  257.107; -756.227; -406.590
450.459;  815.071;  645.786;  780.387
450.747; 4179.231; -411.218; -147.608
451.034;13577.801;  493.772;  889.411
451.322;11463.975; -413.214; -170.614
451.609; 1030.056;  292.777;  508.403
451.897; 1025.813; -550.203; -183.634
452.184; 3214.564; -622.223; -400.598
452.472; 3039.152;   97.792;  269.375
452.759;  644.507;  512.781;  864.395
453.047;  175.096; -407.212; -125.617
453.334;   66.619; -732.219; -216.606
453.621;   93.678; -438.214; -161.615
453.909;  208.901;   13.796;  384.368
454.196;  189.067; -299.199; -123.641
454.483;  376.731;  317.798;  540.364
454.771;  200.557; -215.208;  196.374
455.058;   77.561; -316.207;  102.374
455.345;  203.847;   71.807;  344.347
455.632;  170.166; -128.207;  235.373
455.919;  105.999;  -82.196;  182.354
456.207; -111.627; -774.198; -450.642
456.494;  -36.451; -475.200;  -66.639
456.781;   39.625; -399.202; -198.635
457.068;  100.876; -253.206;  -29.628
457.355;  -53.623; -698.206; -401.629
457.642;  -42.115; -552.205; -290.630
457.929;  -23.666; -778.194; -417.651
458.216;   92.596; -575.212; -354.617
458.503;  443.941; -173.193;  -19.652
458.790;  369.853; -864.208; -630.625
459.077;  470.832;  -77.202;  110.364
459.364; 1398.524; -350.195; -210.649
459.651; 2917.873;  -46.206;  220.372
459.938; 1400.440; -864.209; -665.623
460.225;  252.637;  132.799;  276.363
460.512; -118.705; -836.197; -688.645
460.799;  173.029;  -32.218;  320.392
461.086;   95.156; -370.200; -251.640
461.372;   24.374; -509.198; -279.642
461.659;  175.101; -165.196;  108.354
461.946;   85.439; -445.193;  -54.651
462.233;  441.352;  842.800;  888.361
462.519;  528.148; -814.201; -464.639
462.806; 1692.596; -768.197; -497.645
463.093; 1562.969; -445.191;  -66.656
463.380;  -65.372; -920.186; -824.664
463.666;  106.699; -259.197;  -18.646
463.953;  156.016; -406.195; -243.648
464.239;  324.116; -173.195;  -77.648
464.526;  661.432;  413.806;  743.350
464.813;  454.985; -565.190; -304.658
465.099;  554.040;  606.807;  607.348
465.386;  578.146;  903.807;  921.348
465.672;   16.896; -694.197; -522.645
465.959;   43.111; -598.188; -520.662
466.245;   17.646; -468.193; -359.652
466.532;  139.013; -109.195;   63.352
466.818;  119.728; -357.186; -216.664
467.104;  -44.514; -488.182; -415.672
467.391;  -30.312; -628.189; -459.658
467.677;   62.833; -289.186;    9.335
467.964;  -15.802; -682.189; -471.660
468.250;   98.137; -331.186; -160.665
468.536;  175.390;   90.811;  180.341
468.822;  -71.946; -821.184; -574.668
469.109;  304.403;  351.827;  471.311
469.395;  387.360;  729.808;  787.346
469.681;  349.294;   46.811;  156.341
469.967; 2108.401; -699.188; -382.660
470.254; 4621.713; -494.188; -306.662
470.540; 3088.399; -601.196; -476.646
470.826;  408.402; -488.181; -397.675
471.112;  555.060;  288.816;  113.331
471.398;  141.166; -253.183;  -58.670
471.684;   72.743; -626.177; -447.680
471.970;  -36.092; -918.180; -981.675
472.256;   47.658; -521.192; -441.654
472.542;   18.919; -499.171; -434.691
472.828;  -36.519; -743.182; -607.672
473.114;   52.682; -380.166; -283.700
473.400;   44.167; -504.175; -293.684
473.686;   45.892; -452.166; -400.701
473.972;  126.789; -230.174; -131.687
474.258;  -90.996; -925.173; -843.689
474.544;  350.032; -183.178;   -2.679
474.830;  578.970;  -65.175;   45.316
475.116;  870.088; -123.190; -196.658
475.401; 1136.011; -558.180; -467.676
475.687;  303.610; -725.180; -718.676
475.973;  -33.408; -673.181; -770.673
476.259;  475.073;  736.825;  764.315
476.544;  585.655; -539.176; -437.682
476.830; 1445.514; -398.172; -322.690
477.116; 1290.653; -430.177; -336.682
477.401;  292.911;  346.820;  358.324
477.687;   -8.832; -289.175; -405.684
477.973;  121.697;   21.819;   28.326
478.258;  -27.279; -448.163; -348.706
478.544;   93.745;   21.815;   61.334
478.829; -149.273; -818.171; -738.692
479.115;  -67.687; -749.172; -651.690
479.401;  -11.318; -444.174; -449.686
479.686;   78.909; -253.180;  -74.676
479.972;  -62.261; -886.178; -776.680
480.257;   44.585; -258.166;  -65.700
480.542;  -21.967; -614.170; -469.693
480.828;  481.565; 1288.824; 1392.317
481.113;  -54.238; -464.176; -426.683
481.399;   11.556; -236.161; -202.711
481.684; -118.316; -620.166; -462.700
481.969;   62.775; -158.159;  -73.713
482.255;    3.449; -439.169; -285.695
482.540;   -4.961; -569.178; -441.680
482.825;   35.821; -395.187; -404.663
483.110;  195.153;  -85.169; -105.696
483.396;  312.007; -840.157; -652.718
483.681;  913.389;  543.826;  730.313
483.966;  287.867; -696.160; -700.712
484.251;   43.187; -404.174; -310.687
484.536;   11.699; -356.165; -378.703
484.822;   33.192; -205.173; -218.687
485.107;  -89.838; -599.152; -502.726
485.392;  279.708;  662.836;  541.296
485.677;  140.267;  354.832;  163.302
485.962;  248.403;  160.843;  270.283
486.247;  174.233;  -14.162;   -8.707
486.532;   68.186; -178.166; -325.701
486.817;  280.748;  381.839;  431.291
487.102;  171.337; -453.154; -514.722
487.387; 1133.309; -637.156; -652.718
487.672; 2056.215; -154.164;  -38.705
487.957; 1313.958; -394.160; -286.711
488.241;  349.186; -290.150; -314.729
488.526; 1276.864; -280.152; -148.726
488.811; 1979.342; -881.177; -818.680
489.096; 1510.841; -666.154; -702.723
489.381;  843.259;    3.847;  162.275
489.666;  703.455; -428.161; -510.710
489.950;  373.546;  558.846;  627.277
490.235;  -72.521; -480.151; -458.728
490.520; -107.346; -756.161; -723.710
490.804; -110.388; -827.156; -736.719
491.089;   30.109; -469.149; -299.732
491.374;   78.813; -132.164;  -75.704
491.658;  -36.974; -817.147; -717.735
491.943;  222.670; -657.152; -609.727
492.227;  387.631; -178.155;  -38.721
492.512;   69.502; -294.157; -341.717
492.797; -145.100; -713.149; -716.731
493.081;  -91.470; -588.147; -598.735
493.366;  -90.144; -751.161; -635.711
493.650;  407.407;  831.859;  917.254
493.935;   18.325; -648.147; -447.734
494.219; -122.112; -778.142; -687.743
494.503;  -65.607; -585.150; -487.730
494.788;   84.890;   46.842;   74.285
495.072;  204.388;  184.850;  434.271
495.356;  249.014; -463.148; -343.733
495.641;  644.039; -812.146; -736.736
495.925;  604.319; -976.156; -903.719
496.209;   49.908; -599.149; -451.732
496.494; -118.011; -763.142; -544.744
496.778;   15.537; -364.154; -360.722
497.062;  -94.481; -819.156; -627.719
497.346;  -83.939; -869.160; -640.711
497.631;  331.719;  580.852;  560.266
497.915;  134.554;  -64.145;  175.261
498.199;   38.607; -341.157; -277.718
498.483;   46.661; -562.152; -508.725
498.767;  328.290;  301.850;  300.271
499.051;  286.805; -126.149; -100.732
499.335;   23.302; -693.149; -739.731
499.619;  -65.547; -381.129; -423.767
499.903;   58.029; -272.155;  -65.721
500.187;   55.348; -588.153; -316.724
500.471;    4.469; -796.152; -595.727
500.755;  190.754;   62.839;  -96.710
501.039;    8.530; -270.155; -357.721
501.323;  196.909;  -21.141;  264.254
501.607;   41.122; -447.163; -503.706
501.891;  -45.091; -607.156; -512.718
502.174; -115.229; -726.144; -585.741
502.458;  123.075;   89.849;  370.273
502.742;   92.144; -180.138; -191.751
503.026;  198.424; -412.147; -254.734
503.310;  307.674; -437.159; -375.713
503.593;  195.127; -464.147; -325.735
503.877;  205.202; -232.133; -156.760
504.161;  263.251;    2.847;  -50.724
504.444;  135.293; -841.158; -710.716
504.728;  778.812; -487.164; -522.704
505.012; 1204.485; -257.150;  -76.729
505.295;  898.756; -417.161; -212.711
505.579;  851.418; -256.156; -496.719
505.862; 1327.149; -555.145; -333.738
506.146; 1178.477; -681.159; -758.714
506.429;  745.778;  568.841;  461.286
506.713;   94.381; -732.151; -667.728
506.996;  572.137;   90.846;  295.278
507.280;  531.305; -633.165; -474.703
507.563;  415.827; -469.155; -261.721
507.847;  166.249; -423.153; -112.724
508.130;  158.457; -665.161; -456.711
508.413;  155.378; -758.167; -577.700
508.697;  466.779; -151.167;   12.300
508.980;  278.651; -422.153; -312.724
509.263;  -26.778; -466.155; -450.720
509.547;   78.785; -124.150;   82.271
509.830;   83.560; -172.160;  140.289
510.113;  185.218;  128.844;  298.281
510.396;   37.659; -530.152; -300.725
510.680;  163.051; -818.145; -812.738
510.963;  737.543;  184.846;  180.277
511.246;  545.696; -493.150; -357.730
511.529;  390.358; -482.145;  -83.739
511.812;  608.197; -250.134;   10.241
512.095;  422.377; -740.151; -396.728
512.378;  118.632; -317.147; -245.736
512.661;    7.555; -703.137; -623.753
512.944;   42.091; -750.142; -637.744
513.227;  105.751; -170.137; -171.752
513.510;   47.770; -479.144; -671.741
513.793;   21.615; -485.140; -435.747
514.076;  224.483;  -43.127;  -39.771
514.359;  166.309; -294.149; -135.732
514.642;  137.495; -442.142; -567.744
514.925; 1362.813;  581.860;  561.253
515.208; 1713.992; -498.134; -443.758
515.491; 1138.912; -276.133; -182.761
515.773;  618.776; -410.143; -337.742
516.056; 3565.564;  249.864;  409.246
516.339; 4594.070; -754.136; -652.755
516.622; 2906.893; -518.150; -488.730
516.904; 1622.286;  882.857;  975.257
517.187;  674.249; -730.138; -523.752
517.470;  563.984; -568.143; -510.743
517.752;  692.474; -624.136; -470.756
518.035;  503.631; -708.139; -725.749
518.318;  642.270; -799.136; -744.755
518.600; 4161.817; -300.132; -325.762
518.883; 5648.294;  310.858;   88.256
519.165; 2775.838; -585.138; -426.751
519.448;  615.417;  -61.132;  -19.762
519.730;  262.894; -573.126; -415.773
520.013;  559.706;  588.867;  664.240
520.295;  979.700;  -94.134;  -15.759
520.578; 2082.035; -335.131; -305.764
520.860; 2430.417; -254.132;   56.238
521.143; 1315.277; -763.135; -584.756
521.425;  749.513; -251.125; -279.775
521.707; 1078.584; -622.127; -380.771
521.990; 3011.785; -199.127;  167.229
522.272; 3349.518; -116.140;   -4.748
522.554; 1485.977; -237.143; -157.742
522.836;  483.597;  -24.134;   99.241
523.119;  279.722; -496.148; -189.734
523.401;  198.046; -448.130; -314.766
523.683;  117.655; -865.137; -693.753
523.965;  540.846;  408.862;  260.248
524.247;  485.244;   54.878;  170.220
524.529;  300.999; -451.134; -367.759
524.812;  592.448;   -3.130;  191.234
525.094; 1412.245; -773.138; -631.751
525.376; 2235.226; -143.124;   78.223
525.658; 1411.166; -441.136; -339.754
525.940;    3.331; -805.131; -671.764
526.222;   60.771; -188.136;  -88.755
526.504;  170.028; -190.131;   32.237
526.786;  137.003; -960.133; -647.760
527.068;  364.734; -124.123;  -67.778
527.349;   81.961; -865.137; -774.754
527.631;  209.916; -137.132;   22.238
527.913;  200.783; -664.127; -450.771
528.195;  270.803; -761.125; -639.774
528.477;  398.992;  -93.134;  -30.758
528.759;  221.348; -648.130; -522.766
529.040;   76.032; -569.123; -293.778
529.322;  106.307; -235.125;  -10.774
529.604;  193.151;  -47.130;   93.233
529.886;   99.094; -546.126; -302.773
530.167;  211.639;  232.870;  192.235
530.449;  104.032;    1.853;   63.265
530.731;  -18.158; -572.122; -459.779
531.012;   88.973; -513.120; -216.784
531.294;  170.829; -118.116;  -43.792
531.575;  282.113;  290.875;  538.225
531.857;   96.385; -548.135; -266.757
532.138;  228.007; -113.141;   40.254
532.420;  300.879;  294.865;  403.244
532.701;  212.507; -722.133; -751.760
532.983;  479.911;  232.867;  182.239
533.264;  150.191; -243.126;  175.228
533.546;  -65.629; -491.136; -508.755
533.827;   72.602;  173.867;   -1.759
534.109;   28.285; -352.135;  -80.757
534.390;   70.422; -725.132; -582.762
534.671;  377.879; -270.135;  -82.756
534.953;  181.436; -751.123; -611.779
535.234;   79.008; -426.117; -255.789
535.515; -174.315; -891.119; -735.785
535.796;  -17.323; -431.128; -193.770
536.078; -237.874;-1050.124; -904.777
536.359;   49.737;  -22.123;    3.221
536.640;  -60.095; -480.125; -197.774
536.921;  325.959;  225.871;  143.232
537.202;  620.040;  -87.138;  -16.751
537.483;  771.435;  251.869;  377.236
537.764;  331.039;   17.870;   98.235
538.045;  -77.009; -543.134; -371.758
538.326;  -55.739; -596.129; -447.768
538.607;   17.985; -686.127; -476.771
538.888;  298.360;   98.879;    5.218
