
Integration time [ms]: 100.000
Averaging Nr. [scans]: 40
Smoothing Nr. [pixels]: 0
Data measured with spectrometer [name]: 2101013U2
Wave   ;Sample   ;Dark     ;Reference
[nm]   ;[counts] ;[counts] ;[counts] 

394.013;   32.516; -450.257; -315.536
394.305;  166.439; -461.258; -419.536
394.596; 1592.213; -676.269; -527.514
394.887; 4219.708; -796.268; -654.518
395.178; 1517.870;  145.736;   11.476
395.470;   87.434; -210.263; -356.526
395.761;  141.401;  305.734;  394.479
396.052;  125.384; -545.284; -306.489
396.343;   93.995; -557.276; -454.503
396.634;   49.257; -200.279; -290.497
396.926;   23.930; -618.268; -565.517
397.217;   58.875;   11.725;  -17.504
397.508;   27.970; -366.273; -154.507
397.799;    7.157; -555.279; -571.497
398.090;   -1.350; -973.280; -902.495
398.381;   74.743;   11.708;  -11.473
398.672;  -35.056; -585.292; -742.473
398.963;   28.639; -348.279; -373.498
399.254;   82.005;   54.709; -209.475
399.545;  -31.828;-1017.266; -883.520
399.836;   47.531; -407.277; -343.501
400.127;   57.714; -205.295; -209.468
400.418;   24.638; -423.274; -392.506
400.709;   31.359; -359.281; -333.493
401.000;   39.960; -268.291; -309.476
401.290;  120.436;  225.698;  115.545
401.581;   67.163; -166.286; -228.485
401.872;   30.079; -542.298; -486.462
402.163;   55.379; -313.296; -252.467
402.454;   85.681; -123.291; -163.475
402.744;   44.994; -844.297; -813.465
403.035;  234.832; -226.293;  -86.471
403.326;  329.873; -366.292; -384.474
403.617;  323.648;  204.701;  165.539
403.907;  361.691; -593.283; -679.490
404.198; 3624.130; -545.307; -599.446
404.489; 9251.222; -618.283; -588.491
404.779; 2606.615; -618.302; -660.456
405.070;  281.889;  -67.304; -174.451
405.360;  503.009; -259.293; -238.472
405.651;  477.654;  125.699;   98.542
405.942;  171.807;  209.714;  127.516
406.232;   91.350; -432.285; -413.487
406.523;  253.276;  641.706;  758.530
406.813;   34.860; -579.286; -644.484
407.104;  199.866;  261.708;  144.527
407.394;   75.524; -604.299; -591.462
407.685;  142.174;  336.715;  222.513
407.975;   60.446; -400.283; -382.490
408.265;   97.024; -134.289; -190.478
408.556;   59.877; -472.291; -459.475
408.846;  175.202;  474.706;  429.530
409.137;  101.334;   -1.288; -216.480
409.427;   71.450; -193.285; -271.487
409.717;   53.349; -776.273; -692.508
410.007;  140.042;    4.715; -170.486
410.298;  108.167; -360.295; -342.469
410.588;   94.647; -495.285; -510.486
410.878;   63.047; -792.287; -873.482
411.168;  117.907; -481.298; -478.463
411.459;  146.614; -295.283; -242.489
411.749;   88.450; -609.292; -507.474
412.039;   79.707; -755.289; -386.480
412.329;  230.423;   40.722;  132.501
412.619;  226.111;  -62.286; -148.485
412.909;  372.077;  639.711;  594.521
413.199;  333.375; -130.280; -251.495
413.490;  405.465;  521.710;  352.523
413.780;  226.530;-1013.279; -913.496
414.070;  398.921;  -46.276;  235.497
414.360;  417.968; -729.278; -666.498
414.650;  562.843; -726.288; -688.482
414.940;  749.904; -538.280; -441.496
415.230; 1236.264;   50.712;   74.519
415.520; 8723.637;  155.730;   66.486
415.809;35071.558; -305.281; -125.493
416.099;26354.384; -388.277; -229.501
416.389; 7816.210;  435.726;  236.494
416.679; 4532.389;   91.738;   85.473
416.969;  793.878; -527.287; -503.483
417.259;  646.407;  341.721;  171.503
417.549;  909.382;  522.718;  318.508
417.838; 2428.707; -205.268; -147.518
418.128; 8409.772;  650.710;  492.522
418.418; 6803.657; -491.272; -579.509
418.708; 4565.686;    9.726;  -48.506
418.997;17981.530; -474.275; -480.505
419.287;18277.119; -733.273; -790.507
419.577;17846.163; -160.283; -123.489
419.866;57259.457; -588.277; -498.501
420.156;55565.232; -242.270;  -55.513
420.446; 9209.354; -112.263;  -26.526
420.735;  895.149; -376.271; -446.512
421.025;  918.442; 1830.722;  315.502
421.314;  586.147; -203.271; -226.512
421.604;  746.548;   89.732;  233.484
421.893;  461.768; -705.271; -602.511
422.183;  308.730; -487.263; -461.526
422.472;  414.919;  -36.271; -107.511
422.762;  435.404; -416.266; -379.521
423.051;  289.297; -916.276; -916.503
423.341;  329.196; -491.273; -439.507
423.630;  413.337; -121.265;   15.477
423.919;  440.130;   58.725;   49.495
424.209;  475.486;  -31.263;   56.473
424.498;  658.829;   68.732;  161.483
424.787; 1487.887; -535.267; -601.518
425.077; 4411.085;   34.735;   29.478
425.366; 4822.018; -734.262; -744.528
425.655;13617.522;  639.727;  259.493
425.945;34917.601; -313.247; -268.554
426.234;18372.946;  117.741;  300.467
426.523; 7435.227;  -86.259; -350.534
426.812;10082.299;  107.734;  159.480
427.101;15169.319; -127.269; -323.515
427.390;17755.586;  -55.270;  -86.514
427.680; 2563.951; -624.257; -411.538
427.969;  527.515; -330.255; -301.540
428.258;  369.016; -385.257; -477.536
428.547;  536.462;  449.728;  397.490
428.836;  772.009; -421.253; -398.543
429.125; 1070.929; -199.259;  -72.534
429.414;  825.687; -330.251; -294.548
429.703; 4576.837; -231.251; -213.548
429.992;14206.966; -938.250; -828.549
430.281; 8964.471; -397.264; -331.524
430.570;  629.300;  -21.252;   32.454
430.859;  435.027;  279.741;  352.466
431.148;  424.346;  636.752;  631.446
431.437;  333.300;  391.748;  367.454
431.725;  210.193; -544.257; -481.536
432.014;  219.168; -845.253; -756.545
432.303;  433.988; -149.239; -105.569
432.592;  585.654; -460.263; -178.525
432.881; 1452.972; -601.248; -437.554
433.169; 9705.940; -343.255;  -61.540
433.458;19563.330;  445.765;  540.424
433.747; 7638.350; -397.261; -289.529
434.036;  961.384; -275.242; -280.564
434.324; 2944.307; -395.249; -379.551
434.613; 5317.026;   40.757;  159.437
434.902; 1530.976;  333.760;  439.433
435.190;  299.637;   75.761;  295.431
435.479;  181.079;  -52.245;   83.441
435.767;   90.613; -411.244; -427.561
436.056;  227.879; -340.242; -294.563
436.345;  498.654; -372.240; -223.568
436.633;  458.126;   60.750;  383.450
436.922;  199.582;  208.760;  414.432
437.210;  237.842; -194.236;    1.426
437.499;  568.552; -583.235; -432.576
437.787;  651.592; -339.236;  -10.574
438.075;  202.219;   56.761;  162.430
438.364;  241.397;  -44.238;  250.429
438.652;  125.450; -286.226; -138.592
438.941;   87.831;    3.770;  269.415
439.229;    3.772; -665.252; -466.545
439.517;   39.287; -160.234;  -85.577
439.806;   -1.906; -501.225; -290.595
440.094;  150.947;  377.766;  650.421
440.382;   50.927; -653.233; -302.580
440.670;   54.027; -361.235; -285.576
440.959;    6.215; -347.223; -170.599
441.247;   46.545; -151.229; -109.587
441.535;   61.636; -266.235;   31.423
441.823;    1.143; -497.234; -305.578
442.111;  162.100;  173.771;  327.412
442.400;  326.828; -628.245; -335.559
442.688;  576.396; -111.234; -620.579
442.976;  284.323; -786.213; -450.617
443.264;   49.602; -324.224; -364.597
443.552;   59.551; -258.226;   51.408
443.840;  140.984;  602.765;  876.423
444.128;   96.950;  265.767;  269.420
444.416;   -6.772; -694.228; -312.588
444.704;   33.101; -465.219;  -92.605
444.992;   53.905;   -0.226;  240.407
445.280;   12.682; -517.230;  -94.585
445.568;    7.977; -694.212; -396.618
445.856;  167.032; -174.221;  357.398
446.143;  278.372;  -54.220;   -7.604
446.431;  264.058;  -25.228;  625.411
446.719;  170.725;  489.783;  675.391
447.007;  157.300;  481.769;  705.416
447.295;  173.137;  597.777;  871.402
447.583;   88.292; -464.229;  -34.587
447.870;  122.003; -434.221; -202.601
448.158;  258.505; -104.230;  129.415
448.446;  167.323; -800.219; -338.604
448.733;  146.279;   13.776;  269.403
449.021;  198.351;   60.788;  341.382
449.309;  166.970; -296.210;  208.379
449.596;  238.995;  128.783;   59.392
449.884;  206.620; -571.222; -325.600
450.172;  283.939; -756.227; -406.590
450.459;  660.977;  645.786;  780.387
450.747; 3826.294; -411.218; -147.608
451.034;12344.684;  493.772;  889.411
451.322; 9874.106; -413.214; -170.614
451.609;  737.606;  292.777;  508.403
451.897;  907.047; -550.203; -183.634
452.184; 2767.762; -622.223; -400.598
452.472; 2425.771;   97.792;  269.375
452.759;  335.224;  512.781;  864.395
453.047;  100.648; -407.212; -125.617
453.334;   43.133; -732.219; -216.606
453.621;   35.059; -438.214; -161.615
453.909;   90.687;   13.796;  384.368
454.196;  116.192; -299.199; -123.641
454.483;  240.813;  317.798;  540.364
454.771;  142.425; -215.208;  196.374
455.058;   47.904; -316.207;  102.374
455.345;  143.110;   71.807;  344.347
455.632;  130.208; -128.207;  235.373
455.919;   62.770;  -82.196;  182.354
456.207;  -42.727; -774.198; -450.642
456.494;   -3.773; -475.200;  -66.639
456.781;   26.707; -399.202; -198.635
457.068;   66.991; -253.206;  -29.628
457.355;    7.717; -698.206; -401.629
457.642;   18.799; -552.205; -290.630
457.929;   41.124; -778.194; -417.651
458.216;  104.849; -575.212; -354.617
458.503;  390.404; -173.193;  -19.652
458.790;  418.397; -864.208; -630.625
459.077;  375.563;  -77.202;  110.364
459.364; 1221.565; -350.195; -210.649
459.651; 2579.288;  -46.206;  220.372
459.938; 1138.810; -864.209; -665.623
460.225;  127.717;  132.799;  276.363
460.512;  -36.134; -836.197; -688.645
460.799;  132.267;  -32.218;  320.392
461.086;   97.558; -370.200; -251.640
461.372;   31.948; -509.198; -279.642
461.659;   59.721; -165.196;  108.354
461.946;   51.478; -445.193;  -54.651
462.233;  215.430;  842.800;  888.361
462.519;  505.951; -814.201; -464.639
462.806; 1537.367; -768.197; -497.645
463.093; 1334.428; -445.191;  -66.656
463.380;   11.778; -920.186; -824.664
463.666;   59.469; -259.197;  -18.646
463.953;  131.559; -406.195; -243.648
464.239;  282.984; -173.195;  -77.648
464.526;  407.847;  413.806;  743.350
464.813;  336.217; -565.190; -304.658
465.099;  334.329;  606.807;  607.348
465.386;  267.209;  903.807;  921.348
465.672;   21.842; -694.197; -522.645
465.959;   55.489; -598.188; -520.662
466.245;    5.634; -468.193; -359.652
466.532;   62.756; -109.195;   63.352
466.818;   27.053; -357.186; -216.664
467.104;  -21.873; -488.182; -415.672
467.391;  -15.681; -628.189; -459.658
467.677;   32.833; -289.186;    9.335
467.964;   -7.223; -682.189; -471.660
468.250;   52.586; -331.186; -160.665
468.536;   88.596;   90.811;  180.341
468.822;  -24.975; -821.184; -574.668
469.109;  144.551;  351.827;  471.311
469.395;  200.721;  729.808;  787.346
469.681;  240.025;   46.811;  156.341
469.967; 1816.805; -699.188; -382.660
470.254; 4106.240; -494.188; -306.662
470.540; 2514.020; -601.196; -476.646
470.826;  368.541; -488.181; -397.675
471.112;  404.705;  288.816;  113.331
471.398;  100.285; -253.183;  -58.670
471.684;   49.025; -626.177; -447.680
471.970;   20.695; -918.180; -981.675
472.256;   59.669; -521.192; -441.654
472.542;   31.314; -499.171; -434.691
472.828;   39.972; -743.182; -607.672
473.114;   27.592; -380.166; -283.700
473.400;   22.920; -504.175; -293.684
473.686;   39.500; -452.166; -400.701
473.972;   43.488; -230.174; -131.687
474.258;   -5.999; -925.173; -843.689
474.544;  318.890; -183.178;   -2.679
474.830;  516.897;  -65.175;   45.316
475.116;  817.394; -123.190; -196.658
475.401; 1091.423; -558.180; -467.676
475.687;  297.697; -725.180; -718.676
475.973;   -8.618; -673.181; -770.673
476.259;  251.325;  736.825;  764.315
476.544;  528.710; -539.176; -437.682
476.830; 1365.509; -398.172; -322.690
477.116; 1197.983; -430.177; -336.682
477.401;  179.573;  346.820;  358.324
477.687;   -6.279; -289.175; -405.684
477.973;   45.036;   21.819;   28.326
478.258;  -22.525; -448.163; -348.706
478.544;   31.067;   21.815;   61.334
478.829;  -58.979; -818.171; -738.692
479.115;  -47.766; -749.172; -651.690
479.401;   12.758; -444.174; -449.686
479.686;   58.396; -253.180;  -74.676
479.972;    5.971; -886.178; -776.680
480.257;   54.319; -258.166;  -65.700
480.542;   23.701; -614.170; -469.693
480.828;  235.318; 1288.824; 1392.317
481.113;  -34.884; -464.176; -426.683
481.399;   -1.071; -236.161; -202.711
481.684;  -37.307; -620.166; -462.700
481.969;   28.370; -158.159;  -73.713
482.255;   -6.536; -439.169; -285.695
482.540;   24.322; -569.178; -441.680
482.825;   36.447; -395.187; -404.663
483.110;  159.693;  -85.169; -105.696
483.396;  363.972; -840.157; -652.718
483.681;  751.463;  543.826;  730.313
483.966;  315.063; -696.160; -700.712
484.251;    8.612; -404.174; -310.687
484.536;   11.981; -356.165; -378.703
484.822;   38.366; -205.173; -218.687
485.107;   -3.982; -599.152; -502.726
485.392;  118.613;  662.836;  541.296
485.677;   82.855;  354.832;  163.302
485.962;  113.019;  160.843;  270.283
486.247;  102.485;  -14.162;   -8.707
486.532;   74.070; -178.166; -325.701
486.817;  182.647;  381.839;  431.291
487.102;  152.348; -453.154; -514.722
487.387; 1054.349; -637.156; -652.718
487.672; 1927.495; -154.164;  -38.705
487.957; 1192.581; -394.160; -286.711
488.241;  326.989; -290.150; -314.729
488.526; 1199.220; -280.152; -148.726
488.811; 1976.024; -881.177; -818.680
489.096; 1368.901; -666.154; -702.723
489.381;  703.465;    3.847;  162.275
489.666;  642.229; -428.161; -510.710
489.950;  218.855;  558.846;  627.277
490.235;  -30.917; -480.151; -458.728
490.520;  -26.373; -756.161; -723.710
490.804;  -42.624; -827.156; -736.719
491.089;   17.733; -469.149; -299.732
491.374;   38.493; -132.164;  -75.704
491.658;    0.372; -817.147; -717.735
491.943;   97.625; -657.152; -609.727
492.227;  202.117; -178.155;  -38.721
492.512;   39.943; -294.157; -341.717
492.797;  -59.475; -713.149; -716.731
493.081;  -34.175; -588.147; -598.735
493.366;  -22.471; -751.161; -635.711
493.650;  226.340;  831.859;  917.254
493.935;   66.521; -648.147; -447.734
494.219;  -16.600; -778.142; -687.743
494.503;  -23.556; -585.150; -487.730
494.788;   55.783;   46.842;   74.285
495.072;  134.890;  184.850;  434.271
495.356;  242.637; -463.148; -343.733
495.641;  529.058; -812.146; -736.736
495.925;  451.682; -976.156; -903.719
496.209;   20.482; -599.149; -451.732
496.494;  -44.350; -763.142; -544.744
496.778;    9.473; -364.154; -360.722
497.062;  -39.993; -819.156; -627.719
497.346;    6.433; -869.160; -640.711
497.631;  163.141;  580.852;  560.266
497.915;   69.321;  -64.145;  175.261
498.199;   45.122; -341.157; -277.718
498.483;   53.668; -562.152; -508.725
498.767;  246.242;  301.850;  300.271
499.051;  278.804; -126.149; -100.732
499.335;   66.052; -693.149; -739.731
499.619;  -18.886; -381.129; -423.767
499.903;   24.941; -272.155;  -65.721
500.187;   34.181; -588.153; -316.724
500.471;   16.524; -796.152; -595.727
500.755;  112.353;   62.839;  -96.710
501.039;   -9.359; -270.155; -357.721
501.323;   77.092;  -21.141;  264.254
501.607;   27.950; -447.163; -503.706
501.891;   10.449; -607.156; -512.718
502.174;  -30.815; -726.144; -585.741
502.458;   67.804;   89.849;  370.273
502.742;   51.696; -180.138; -191.751
503.026;  202.421; -412.147; -254.734
503.310;  322.469; -437.159; -375.713
503.593;  202.673; -464.147; -325.735
503.877;  142.846; -232.133; -156.760
504.161;  199.434;    2.847;  -50.724
504.444;  184.586; -841.158; -710.716
504.728;  764.592; -487.164; -522.704
505.012; 1108.438; -257.150;  -76.729
505.295;  814.954; -417.161; -212.711
505.579;  830.407; -256.156; -496.719
505.862; 1240.167; -555.145; -333.738
506.146; 1248.372; -681.159; -758.714
506.429;  552.998;  568.841;  461.286
506.713;  128.059; -732.151; -667.728
506.996;  486.297;   90.846;  295.278
507.280;  546.636; -633.165; -474.703
507.563;  384.164; -469.155; -261.721
507.847;  178.257; -423.153; -112.724
508.130;  175.330; -665.161; -456.711
508.413;  223.214; -758.167; -577.700
508.697;  417.914; -151.167;   12.300
508.980;  279.184; -422.153; -312.724
509.263;   27.835; -466.155; -450.720
509.547;   67.863; -124.150;   82.271
509.830;   65.583; -172.160;  140.289
510.113;   85.431;  128.844;  298.281
510.396;   47.741; -530.152; -300.725
510.680;   49.093; -818.145; -812.738
510.963;  234.102;  184.846;  180.277
511.246;  157.097; -493.150; -357.730
511.529;  284.924; -482.145;  -83.739
511.812;  612.016; -250.134;   10.241
512.095;  455.331; -740.151; -396.728
512.378;  116.553; -317.147; -245.736
512.661;   72.781; -703.137; -623.753
512.944;   89.452; -750.142; -637.744
513.227;  107.127; -170.137; -171.752
513.510;   59.085; -479.144; -671.741
513.793;   43.372; -485.140; -435.747
514.076;  160.464;  -43.127;  -39.771
514.359;  160.883; -294.149; -135.732
514.642;  143.531; -442.142; -567.744
514.925; 1123.771;  581.860;  561.253
515.208; 1649.712; -498.134; -443.758
515.491; 1035.104; -276.133; -182.761
515.773;  585.214; -410.143; -337.742
516.056; 3260.088;  249.864;  409.246
516.339; 4318.018; -754.136; -652.755
516.622; 2038.519; -518.150; -488.730
516.904;  588.298;  882.857;  975.257
517.187;  239.651; -730.138; -523.752
517.470;  416.321; -568.143; -510.743
517.752;  734.397; -624.136; -470.756
518.035;  605.785; -708.139; -725.749
518.318;  608.318; -799.136; -744.755
518.600; 3954.058; -300.132; -325.762
518.883; 5465.205;  310.858;   88.256
519.165; 2477.267; -585.138; -426.751
519.448;  451.983;  -61.132;  -19.762
519.730;  214.198; -573.126; -415.773
520.013;  255.599;  588.867;  664.240
520.295;  323.968;  -94.134;  -15.759
520.578;  685.774; -335.131; -305.764
520.860;  920.533; -254.132;   56.238
521.143;  654.474; -763.135; -584.756
521.425;  587.114; -251.125; -279.775
521.707;  991.189; -622.127; -380.771
521.990; 2783.940; -199.127;  167.229
522.272; 3247.625; -116.140;   -4.748
522.554; 1194.540; -237.143; -157.742
522.836;  287.116;  -24.134;   99.241
523.119;  198.219; -496.148; -189.734
523.401;  190.432; -448.130; -314.766
523.683;  159.531; -865.137; -693.753
523.965;  409.173;  408.862;  260.248
524.247;  426.315;   54.878;  170.220
524.529;  328.618; -451.134; -367.759
524.812;  470.809;   -3.130;  191.234
525.094; 1390.597; -773.138; -631.751
525.376; 2168.625; -143.124;   78.223
525.658; 1317.440; -441.136; -339.754
525.940;  107.745; -805.131; -671.764
526.222;   38.294; -188.136;  -88.755
526.504;   58.517; -190.131;   32.237
526.786;   40.521; -960.133; -647.760
527.068;  127.932; -124.123;  -67.778
527.349;   16.936; -865.137; -774.754
527.631;  118.883; -137.132;   22.238
527.913;  239.513; -664.127; -450.771
528.195;  323.405; -761.125; -639.774
528.477;  356.312;  -93.134;  -30.758
528.759;  271.759; -648.130; -522.766
529.040;  145.905; -569.123; -293.778
529.322;   89.059; -235.125;  -10.774
529.604;   99.787;  -47.130;   93.233
529.886;   42.873; -546.126; -302.773
530.167;   78.227;  232.870;  192.235
530.449;   41.752;    1.853;   63.265
530.731;   74.764; -572.122; -459.779
531.012;  142.939; -513.120; -216.784
531.294;  126.587; -118.116;  -43.792
531.575;  199.589;  290.875;  538.225
531.857;  130.131; -548.135; -266.757
532.138;  119.490; -113.141;   40.254
532.420;  124.476;  294.865;  403.244
532.701;   85.624; -722.133; -751.760
532.983;  204.103;  232.867;  182.239
533.264;   49.770; -243.126;  175.228
533.546;  -47.656; -491.136; -508.755
533.827;   21.995;  173.867;   -1.759
534.109;   14.056; -352.135;  -80.757
534.390;  103.513; -725.132; -582.762
534.671;  314.026; -270.135;  -82.756
534.953;  201.133; -751.123; -611.779
535.234;   50.043; -426.117; -255.789
535.515;  -53.801; -891.119; -735.785
535.796;    2.934; -431.128; -193.770
536.078; -107.650;-1050.124; -904.777
536.359;    7.884;  -22.123;    3.221
536.640;   -5.618; -480.125; -197.774
536.921;  167.443;  225.871;  143.232
537.202;  543.944;  -87.138;  -16.751
537.483;  672.773;  251.869;  377.236
537.764;  270.777;   17.870;   98.235
538.045;  -35.464; -543.134; -371.758
538.326;  -36.780; -596.129; -447.768
538.607;   79.216; -686.127; -476.771
538.888;  270.303;   98.879;    5.218
