
Integration time [ms]: 100.000
Averaging Nr. [scans]: 40
Smoothing Nr. [pixels]: 0
Data measured with spectrometer [name]: 2101013U2
Wave   ;Sample   ;Dark     ;Reference
[nm]   ;[counts] ;[counts] ;[counts] 

394.013;   69.738; -450.257; -315.536
394.305;  263.811; -461.258; -419.536
394.596; 1057.235; -676.269; -527.514
394.887; 2473.676; -796.268; -654.518
395.178;  963.781;  145.736;   11.476
395.470;  105.142; -210.263; -356.526
395.761;  244.191;  305.734;  394.479
396.052;  446.212; -545.284; -306.489
396.343;  447.880; -557.276; -454.503
396.634;  173.550; -200.279; -290.497
396.926;  176.499; -618.268; -565.517
397.217;  163.960;   11.725;  -17.504
397.508;   78.350; -366.273; -154.507
397.799;   90.225; -555.279; -571.497
398.090;   24.869; -973.280; -902.495
398.381;  156.838;   11.708;  -11.473
398.672;   11.389; -585.292; -742.473
398.963;   86.031; -348.279; -373.498
399.254;  143.623;   54.709; -209.475
399.545;   -2.913;-1017.266; -883.520
399.836;   94.120; -407.277; -343.501
400.127;   75.890; -205.295; -209.468
400.418;   90.170; -423.274; -392.506
400.709;  108.807; -359.281; -333.493
401.000;   69.702; -268.291; -309.476
401.290;  118.253;  225.698;  115.545
401.581;   88.670; -166.286; -228.485
401.872;   32.863; -542.298; -486.462
402.163;   63.008; -313.296; -252.467
402.454;  118.324; -123.291; -163.475
402.744;  125.899; -844.297; -813.465
403.035;  571.880; -226.293;  -86.471
403.326;  742.592; -366.292; -384.474
403.617;  459.832;  204.701;  165.539
403.907;  255.468; -593.283; -679.490
404.198; 2225.658; -545.307; -599.446
404.489; 5831.772; -618.283; -588.491
404.779; 2092.281; -618.302; -660.456
405.070;  251.760;  -67.304; -174.451
405.360;  348.607; -259.293; -238.472
405.651;  371.042;  125.699;   98.542
405.942;  217.940;  209.714;  127.516
406.232;  403.030; -432.285; -413.487
406.523;  631.950;  641.706;  758.530
406.813;  139.592; -579.286; -644.484
407.104;  444.587;  261.708;  144.527
407.394;  250.558; -604.299; -591.462
407.685;  180.254;  336.715;  222.513
407.975;   75.621; -400.283; -382.490
408.265;  137.463; -134.289; -190.478
408.556;   73.246; -472.291; -459.475
408.846;  184.351;  474.706;  429.530
409.137;   88.296;   -1.288; -216.480
409.427;   66.729; -193.285; -271.487
409.717;   37.629; -776.273; -692.508
410.007;  169.973;    4.715; -170.486
410.298;  123.468; -360.295; -342.469
410.588;   73.727; -495.285; -510.486
410.878;   54.832; -792.287; -873.482
411.168;  142.690; -481.298; -478.463
411.459;  119.291; -295.283; -242.489
411.749;   76.345; -609.292; -507.474
412.039;   81.270; -755.289; -386.480
412.329;  225.513;   40.722;  132.501
412.619;  215.993;  -62.286; -148.485
412.909;  406.891;  639.711;  594.521
413.199;  395.094; -130.280; -251.495
413.490;  458.607;  521.710;  352.523
413.780;  151.948;-1013.279; -913.496
414.070;  332.506;  -46.276;  235.497
414.360;  397.359; -729.278; -666.498
414.650;  440.328; -726.288; -688.482
414.940;  504.948; -538.280; -441.496
415.230;  903.375;   50.712;   74.519
415.520; 5744.659;  155.730;   66.486
415.809;22503.131; -305.281; -125.493
416.099;17299.222; -388.277; -229.501
416.389; 4715.368;  435.726;  236.494
416.679; 2732.871;   91.738;   85.473
416.969;  501.012; -527.287; -503.483
417.259;  457.975;  341.721;  171.503
417.549;  705.855;  522.718;  318.508
417.838; 1533.501; -205.268; -147.518
418.128; 4984.587;  650.710;  492.522
418.418; 4155.310; -491.272; -579.509
418.708; 2828.193;    9.726;  -48.506
418.997;10446.039; -474.275; -480.505
419.287;10895.550; -733.273; -790.507
419.577;10002.465; -160.283; -123.489
419.866;33688.095; -588.277; -498.501
420.156;35135.105; -242.270;  -55.513
420.446; 6451.388; -112.263;  -26.526
420.735;  998.224; -376.271; -446.512
421.025;  850.233; 1830.722;  315.502
421.314;  860.297; -203.271; -226.512
421.604; 2009.668;   89.732;  233.484
421.893; 1165.794; -705.271; -602.511
422.183;  248.763; -487.263; -461.526
422.472;  419.520;  -36.271; -107.511
422.762;  497.543; -416.266; -379.521
423.051;  282.007; -916.276; -916.503
423.341;  366.502; -491.273; -439.507
423.630;  458.124; -121.265;   15.477
423.919;  415.463;   58.725;   49.495
424.209;  380.519;  -31.263;   56.473
424.498;  490.223;   68.732;  161.483
424.787; 1055.279; -535.267; -601.518
425.077; 3322.998;   34.735;   29.478
425.366; 5162.724; -734.262; -744.528
425.655; 9344.777;  639.727;  259.493
425.945;18315.876; -313.247; -268.554
426.234;10242.972;  117.741;  300.467
426.523; 4740.852;  -86.259; -350.534
426.812; 6520.539;  107.734;  159.480
427.101; 9435.965; -127.269; -323.515
427.390;12253.759;  -55.270;  -86.514
427.680; 3313.521; -624.257; -411.538
427.969;  549.657; -330.255; -301.540
428.258;  361.338; -385.257; -477.536
428.547;  615.589;  449.728;  397.490
428.836; 1605.947; -421.253; -398.543
429.125; 2342.453; -199.259;  -72.534
429.414;  938.295; -330.251; -294.548
429.703; 2952.220; -231.251; -213.548
429.992; 8587.923; -938.250; -828.549
430.281; 5604.206; -397.264; -331.524
430.570;  642.860;  -21.252;   32.454
430.859;  713.676;  279.741;  352.466
431.148;  499.372;  636.752;  631.446
431.437;  314.360;  391.748;  367.454
431.725;  163.439; -544.257; -481.536
432.014;  124.655; -845.253; -756.545
432.303;  428.571; -149.239; -105.569
432.592;  725.188; -460.263; -178.525
432.881; 1023.723; -601.248; -437.554
433.169; 5555.007; -343.255;  -61.540
433.458;11280.704;  445.765;  540.424
433.747; 4876.230; -397.261; -289.529
434.036; 1053.772; -275.242; -280.564
434.324; 2038.260; -395.249; -379.551
434.613; 3423.191;   40.757;  159.437
434.902; 1269.761;  333.760;  439.433
435.190;  821.620;   75.761;  295.431
435.479;  473.348;  -52.245;   83.441
435.767;  144.681; -411.244; -427.561
436.056;  291.043; -340.242; -294.563
436.345;  402.739; -372.240; -223.568
436.633;  432.806;   60.750;  383.450
436.922;  356.691;  208.760;  414.432
437.210;  923.419; -194.236;    1.426
437.499; 2985.252; -583.235; -432.576
437.787; 3279.494; -339.236;  -10.574
438.075;  767.850;   56.761;  162.430
438.364; 1041.553;  -44.238;  250.429
438.652;  617.705; -286.226; -138.592
438.941;  183.595;    3.770;  269.415
439.229;   24.807; -665.252; -466.545
439.517;   76.135; -160.234;  -85.577
439.806;    1.146; -501.225; -290.595
440.094;  216.343;  377.766;  650.421
440.382;  286.047; -653.233; -302.580
440.670;  307.227; -361.235; -285.576
440.959;   59.538; -347.223; -170.599
441.247;  102.881; -151.229; -109.587
441.535;  137.809; -266.235;   31.423
441.823;   78.790; -497.234; -305.578
442.111;  206.935;  173.771;  327.412
442.400;  743.972; -628.245; -335.559
442.688; 2039.692; -111.234; -620.579
442.976; 1545.874; -786.213; -450.617
443.264;  166.302; -324.224; -364.597
443.552;  139.981; -258.226;   51.408
443.840;  199.107;  602.765;  876.423
444.128;  153.196;  265.767;  269.420
444.416;   27.888; -694.228; -312.588
444.704;   37.217; -465.219;  -92.605
444.992;  108.784;   -0.226;  240.407
445.280;   81.971; -517.230;  -94.585
445.568;   82.452; -694.212; -396.618
445.856;  476.526; -174.221;  357.398
446.143; 1084.413;  -54.220;   -7.604
446.431;  882.292;  -25.228;  625.411
446.719;  308.386;  489.783;  675.391
447.007;  213.065;  481.769;  705.416
447.295;  188.135;  597.777;  871.402
447.583;  112.204; -464.229;  -34.587
447.870;  189.273; -434.221; -202.601
448.158;  549.095; -104.230;  129.415
448.446;  431.364; -800.219; -338.604
448.733;  216.054;   13.776;  269.403
449.021;  292.277;   60.788;  341.382
449.309;  216.367; -296.210;  208.379
449.596;  236.732;  128.783;   59.392
449.884;  171.792; -571.222; -325.600
450.172;  131.122; -756.227; -406.590
450.459;  435.207;  645.786;  780.387
450.747; 2064.256; -411.218; -147.608
451.034; 6642.693;  493.772;  889.411
451.322; 5427.835; -413.214; -170.614
451.609;  477.905;  292.777;  508.403
451.897;  531.978; -550.203; -183.634
452.184; 1610.910; -622.223; -400.598
452.472; 1544.363;   97.792;  269.375
452.759;  376.715;  512.781;  864.395
453.047;  153.500; -407.212; -125.617
453.334;  116.547; -732.219; -216.606
453.621;  116.913; -438.214; -161.615
453.909;  159.795;   13.796;  384.368
454.196;  130.015; -299.199; -123.641
454.483;  245.216;  317.798;  540.364
454.771;  165.141; -215.208;  196.374
455.058;   51.044; -316.207;  102.374
455.345;  112.369;   71.807;  344.347
455.632;   85.522; -128.207;  235.373
455.919;   49.137;  -82.196;  182.354
456.207;  -45.131; -774.198; -450.642
456.494;   -0.672; -475.200;  -66.639
456.781;   12.837; -399.202; -198.635
457.068;   71.803; -253.206;  -29.628
457.355;   29.679; -698.206; -401.629
457.642;   15.260; -552.205; -290.630
457.929;   29.110; -778.194; -417.651
458.216;   51.050; -575.212; -354.617
458.503;  222.365; -173.193;  -19.652
458.790;  194.338; -864.208; -630.625
459.077;  281.367;  -77.202;  110.364
459.364;  735.478; -350.195; -210.649
459.651; 1541.826;  -46.206;  220.372
459.938;  729.354; -864.209; -665.623
460.225;  183.720;  132.799;  276.363
460.512;  -27.741; -836.197; -688.645
460.799;  131.054;  -32.218;  320.392
461.086;   94.807; -370.200; -251.640
461.372;   85.870; -509.198; -279.642
461.659;  143.688; -165.196;  108.354
461.946;  103.988; -445.193;  -54.651
462.233;  253.880;  842.800;  888.361
462.519;  362.852; -814.201; -464.639
462.806;  915.810; -768.197; -497.645
463.093;  806.384; -445.191;  -66.656
463.380;  -17.751; -920.186; -824.664
463.666;   69.386; -259.197;  -18.646
463.953;   96.873; -406.195; -243.648
464.239;  178.048; -173.195;  -77.648
464.526;  424.459;  413.806;  743.350
464.813;  400.295; -565.190; -304.658
465.099;  400.789;  606.807;  607.348
465.386;  411.593;  903.807;  921.348
465.672;   78.985; -694.197; -522.645
465.959;   65.588; -598.188; -520.662
466.245;   28.043; -468.193; -359.652
466.532;  132.796; -109.195;   63.352
466.818;  104.199; -357.186; -216.664
467.104;   30.088; -488.182; -415.672
467.391;  -19.753; -628.189; -459.658
467.677;   37.552; -289.186;    9.335
467.964;   23.128; -682.189; -471.660
468.250;  109.605; -331.186; -160.665
468.536;   97.698;   90.811;  180.341
468.822;  -21.408; -821.184; -574.668
469.109;  158.417;  351.827;  471.311
469.395;  213.003;  729.808;  787.346
469.681;  214.951;   46.811;  156.341
469.967; 1159.081; -699.188; -382.660
470.254; 2460.463; -494.188; -306.662
470.540; 1552.012; -601.196; -476.646
470.826;  229.699; -488.181; -397.675
471.112;  291.770;  288.816;  113.331
471.398;   81.450; -253.183;  -58.670
471.684;   63.727; -626.177; -447.680
471.970;   12.053; -918.180; -981.675
472.256;   31.827; -521.192; -441.654
472.542;   33.778; -499.171; -434.691
472.828;   47.959; -743.182; -607.672
473.114;   48.721; -380.166; -283.700
473.400;   32.718; -504.175; -293.684
473.686;   51.027; -452.166; -400.701
473.972;   72.932; -230.174; -131.687
474.258;  -47.533; -925.173; -843.689
474.544;  170.719; -183.178;   -2.679
474.830;  258.320;  -65.175;   45.316
475.116;  394.371; -123.190; -196.658
475.401;  567.705; -558.180; -467.676
475.687;  188.754; -725.180; -718.676
475.973;   22.642; -673.181; -770.673
476.259;  277.072;  736.825;  764.315
476.544;  352.960; -539.176; -437.682
476.830;  697.624; -398.172; -322.690
477.116;  573.533; -430.177; -336.682
477.401;  141.804;  346.820;  358.324
477.687;  -29.732; -289.175; -405.684
477.973;   51.220;   21.819;   28.326
478.258;   -0.953; -448.163; -348.706
478.544;   69.985;   21.815;   61.334
478.829;  -35.717; -818.171; -738.692
479.115;  -26.226; -749.172; -651.690
479.401;   -4.772; -444.174; -449.686
479.686;   38.503; -253.180;  -74.676
479.972;  -39.851; -886.178; -776.680
480.257;   42.172; -258.166;  -65.700
480.542;  -11.888; -614.170; -469.693
480.828;  239.316; 1288.824; 1392.317
481.113;  -21.661; -464.176; -426.683
481.399;    9.845; -236.161; -202.711
481.684;  -46.129; -620.166; -462.700
481.969;   23.933; -158.159;  -73.713
482.255;    0.098; -439.169; -285.695
482.540;   10.474; -569.178; -441.680
482.825;   -1.281; -395.187; -404.663
483.110;   96.776;  -85.169; -105.696
483.396;  141.329; -840.157; -652.718
483.681;  445.857;  543.826;  730.313
483.966;  127.802; -696.160; -700.712
484.251;   26.006; -404.174; -310.687
484.536;    9.582; -356.165; -378.703
484.822;   13.234; -205.173; -218.687
485.107;  -24.633; -599.152; -502.726
485.392;  137.162;  662.836;  541.296
485.677;   66.360;  354.832;  163.302
485.962;  114.327;  160.843;  270.283
486.247;  113.029;  -14.162;   -8.707
486.532;   38.423; -178.166; -325.701
486.817;  169.939;  381.839;  431.291
487.102;  133.250; -453.154; -514.722
487.387;  553.306; -637.156; -652.718
487.672;  954.068; -154.164;  -38.705
487.957;  624.746; -394.160; -286.711
488.241;  203.783; -290.150; -314.729
488.526;  621.418; -280.152; -148.726
488.811; 1022.201; -881.177; -818.680
489.096;  775.603; -666.154; -702.723
489.381;  452.039;    3.847;  162.275
489.666;  303.495; -428.161; -510.710
489.950;  168.881;  558.846;  627.277
490.235;  -37.847; -480.151; -458.728
490.520;  -39.331; -756.161; -723.710
490.804;  -53.342; -827.156; -736.719
491.089;    0.648; -469.149; -299.732
491.374;   30.016; -132.164;  -75.704
491.658;   17.235; -817.147; -717.735
491.943;  215.922; -657.152; -609.727
492.227;  305.146; -178.155;  -38.721
492.512;   69.301; -294.157; -341.717
492.797;  -59.558; -713.149; -716.731
493.081;  -51.063; -588.147; -598.735
493.366;  -28.305; -751.161; -635.711
493.650;  216.739;  831.859;  917.254
493.935;   32.309; -648.147; -447.734
494.219;  -44.523; -778.142; -687.743
494.503;  -28.387; -585.150; -487.730
494.788;   47.243;   46.842;   74.285
495.072;  109.634;  184.850;  434.271
495.356;  168.527; -463.148; -343.733
495.641;  490.194; -812.146; -736.736
495.925;  487.963; -976.156; -903.719
496.209;   51.573; -599.149; -451.732
496.494;  -33.523; -763.142; -544.744
496.778;   19.025; -364.154; -360.722
497.062;  -51.038; -819.156; -627.719
497.346;  -29.677; -869.160; -640.711
497.631;  136.305;  580.852;  560.266
497.915;   95.579;  -64.145;  175.261
498.199;   73.104; -341.157; -277.718
498.483;   73.366; -562.152; -508.725
498.767;  183.560;  301.850;  300.271
499.051;  177.096; -126.149; -100.732
499.335;   29.894; -693.149; -739.731
499.619;  -23.112; -381.129; -423.767
499.903;   32.945; -272.155;  -65.721
500.187;   47.482; -588.153; -316.724
500.471;   27.971; -796.152; -595.727
500.755;  136.944;   62.839;  -96.710
501.039;   39.145; -270.155; -357.721
501.323;  104.741;  -21.141;  264.254
501.607;   63.447; -447.163; -503.706
501.891;   15.931; -607.156; -512.718
502.174;  -34.760; -726.144; -585.741
502.458;   85.425;   89.849;  370.273
502.742;   47.464; -180.138; -191.751
503.026;   87.959; -412.147; -254.734
503.310;  140.082; -437.159; -375.713
503.593;  109.460; -464.147; -325.735
503.877;  135.079; -232.133; -156.760
504.161;  207.734;    2.847;  -50.724
504.444;  136.695; -841.158; -710.716
504.728;  385.965; -487.164; -522.704
505.012;  617.732; -257.150;  -76.729
505.295;  489.220; -417.161; -212.711
505.579;  456.762; -256.156; -496.719
505.862;  626.575; -555.145; -333.738
506.146;  606.784; -681.159; -758.714
506.429;  372.685;  568.841;  461.286
506.713;   62.429; -732.151; -667.728
506.996;  312.249;   90.846;  295.278
507.280;  283.511; -633.165; -474.703
507.563;  201.068; -469.155; -261.721
507.847;   77.458; -423.153; -112.724
508.130;   78.296; -665.161; -456.711
508.413;   96.843; -758.167; -577.700
508.697;  223.818; -151.167;   12.300
508.980;  110.559; -422.153; -312.724
509.263;    4.690; -466.155; -450.720
509.547;   44.382; -124.150;   82.271
509.830;   51.073; -172.160;  140.289
510.113;   74.812;  128.844;  298.281
510.396;   49.615; -530.152; -300.725
510.680;  263.427; -818.145; -812.738
510.963;  944.104;  184.846;  180.277
511.246;  874.140; -493.150; -357.730
511.529;  301.482; -482.145;  -83.739
511.812;  318.475; -250.134;   10.241
512.095;  222.977; -740.151; -396.728
512.378;   62.539; -317.147; -245.736
512.661;   24.197; -703.137; -623.753
512.944;   23.279; -750.142; -637.744
513.227;   77.519; -170.137; -171.752
513.510;   26.840; -479.144; -671.741
513.793;   33.245; -485.140; -435.747
514.076;  133.159;  -43.127;  -39.771
514.359;  116.599; -294.149; -135.732
514.642;   68.057; -442.142; -567.744
514.925;  629.594;  581.860;  561.253
515.208;  835.247; -498.134; -443.758
515.491;  553.735; -276.133; -182.761
515.773;  311.694; -410.143; -337.742
516.056; 1771.378;  249.864;  409.246
516.339; 2454.557; -754.136; -652.755
516.622; 2112.437; -518.150; -488.730
516.904; 1712.350;  882.857;  975.257
517.187;  833.368; -730.138; -523.752
517.470;  418.974; -568.143; -510.743
517.752;  378.610; -624.136; -470.756
518.035;  296.256; -708.139; -725.749
518.318;  297.507; -799.136; -744.755
518.600; 1974.189; -300.132; -325.762
518.883; 2718.406;  310.858;   88.256
519.165; 1362.586; -585.138; -426.751
519.448;  435.389;  -61.132;  -19.762
519.730;  229.516; -573.126; -415.773
520.013;  375.132;  588.867;  664.240
520.295; 1182.202;  -94.134;  -15.759
520.578; 2694.501; -335.131; -305.764
520.860; 2930.989; -254.132;   56.238
521.143; 1456.062; -763.135; -584.756
521.425;  484.754; -251.125; -279.775
521.707;  614.784; -622.127; -380.771
521.990; 1486.384; -199.127;  167.229
522.272; 1732.872; -116.140;   -4.748
522.554;  884.369; -237.143; -157.742
522.836;  505.325;  -24.134;   99.241
523.119;  266.307; -496.148; -189.734
523.401;  173.683; -448.130; -314.766
523.683;   76.847; -865.137; -693.753
523.965;  247.741;  408.862;  260.248
524.247;  234.099;   54.878;  170.220
524.529;  196.052; -451.134; -367.759
524.812;  342.285;   -3.130;  191.234
525.094;  716.465; -773.138; -631.751
525.376; 1119.288; -143.124;   78.223
525.658;  698.304; -441.136; -339.754
525.940;   20.348; -805.131; -671.764
526.222;   40.108; -188.136;  -88.755
526.504;  139.446; -190.131;   32.237
526.786;  289.454; -960.133; -647.760
527.068;  431.243; -124.123;  -67.778
527.349;  226.676; -865.137; -774.754
527.631;  143.113; -137.132;   22.238
527.913;  119.183; -664.127; -450.771
528.195;  121.922; -761.125; -639.774
528.477;  211.222;  -93.134;  -30.758
528.759;   95.560; -648.130; -522.766
529.040;   45.667; -569.123; -293.778
529.322;   56.374; -235.125;  -10.774
529.604;  159.462;  -47.130;   93.233
529.886;  177.566; -546.126; -302.773
530.167;  149.154;  232.870;  192.235
530.449;   38.239;    1.853;   63.265
530.731;   20.049; -572.122; -459.779
531.012;   54.994; -513.120; -216.784
531.294;   72.782; -118.116;  -43.792
531.575;  131.679;  290.875;  538.225
531.857;   37.692; -548.135; -266.757
532.138;   87.415; -113.141;   40.254
532.420;  219.038;  294.865;  403.244
532.701;  286.807; -722.133; -751.760
532.983;  420.460;  232.867;  182.239
533.264;  145.939; -243.126;  175.228
533.546;  -18.017; -491.136; -508.755
533.827;   53.603;  173.867;   -1.759
534.109;   81.692; -352.135;  -80.757
534.390;  135.517; -725.132; -582.762
534.671;  283.738; -270.135;  -82.756
534.953;  136.594; -751.123; -611.779
535.234;   31.292; -426.117; -255.789
535.515;  -78.848; -891.119; -735.785
535.796;  -20.421; -431.128; -193.770
536.078;  -96.338;-1050.124; -904.777
536.359;    4.895;  -22.123;    3.221
536.640;    3.798; -480.125; -197.774
536.921;  164.767;  225.871;  143.232
537.202;  319.012;  -87.138;  -16.751
537.483;  393.276;  251.869;  377.236
537.764;  140.929;   17.870;   98.235
538.045;  -29.754; -543.134; -371.758
538.326;  -25.006; -596.129; -447.768
538.607;   10.685; -686.127; -476.771
538.888;  136.060;   98.879;    5.218
