
Integration time [ms]: 100.000
Averaging Nr. [scans]: 40
Smoothing Nr. [pixels]: 0
Data measured with spectrometer [name]: 2101013U2
Wave   ;Sample   ;Dark     ;Reference
[nm]   ;[counts] ;[counts] ;[counts] 

394.013;   71.395; -450.257; -315.536
394.305;  249.443; -461.258; -419.536
394.596; 1005.518; -676.269; -527.514
394.887; 2358.284; -796.268; -654.518
395.178;  936.114;  145.736;   11.476
395.470;   93.124; -210.263; -356.526
395.761;  239.849;  305.734;  394.479
396.052;  400.497; -545.284; -306.489
396.343;  415.590; -557.276; -454.503
396.634;  153.784; -200.279; -290.497
396.926;  181.557; -618.268; -565.517
397.217;  143.769;   11.725;  -17.504
397.508;   75.059; -366.273; -154.507
397.799;   69.309; -555.279; -571.497
398.090;   21.879; -973.280; -902.495
398.381;  154.474;   11.708;  -11.473
398.672;   16.701; -585.292; -742.473
398.963;   71.290; -348.279; -373.498
399.254;  137.259;   54.709; -209.475
399.545;    8.945;-1017.266; -883.520
399.836;   79.904; -407.277; -343.501
400.127;   63.826; -205.295; -209.468
400.418;   91.279; -423.274; -392.506
400.709;  101.666; -359.281; -333.493
401.000;   72.763; -268.291; -309.476
401.290;  116.540;  225.698;  115.545
401.581;   95.805; -166.286; -228.485
401.872;   41.649; -542.298; -486.462
402.163;   72.044; -313.296; -252.467
402.454;  116.360; -123.291; -163.475
402.744;  105.061; -844.297; -813.465
403.035;  572.241; -226.293;  -86.471
403.326;  753.203; -366.292; -384.474
403.617;  457.369;  204.701;  165.539
403.907;  251.777; -593.283; -679.490
404.198; 2152.721; -545.307; -599.446
404.489; 5658.907; -618.283; -588.491
404.779; 2089.343; -618.302; -660.456
405.070;  266.323;  -67.304; -174.451
405.360;  320.393; -259.293; -238.472
405.651;  354.329;  125.699;   98.542
405.942;  201.676;  209.714;  127.516
406.232;  404.990; -432.285; -413.487
406.523;  634.236;  641.706;  758.530
406.813;  139.928; -579.286; -644.484
407.104;  450.748;  261.708;  144.527
407.394;  267.620; -604.299; -591.462
407.685;  175.064;  336.715;  222.513
407.975;   76.481; -400.283; -382.490
408.265;  136.874; -134.289; -190.478
408.556;   85.632; -472.291; -459.475
408.846;  184.237;  474.706;  429.530
409.137;   90.257;   -1.288; -216.480
409.427;   68.539; -193.285; -271.487
409.717;   57.737; -776.273; -692.508
410.007;  168.233;    4.715; -170.486
410.298;  106.454; -360.295; -342.469
410.588;   69.562; -495.285; -510.486
410.878;   61.768; -792.287; -873.482
411.168;  137.227; -481.298; -478.463
411.459;  121.576; -295.283; -242.489
411.749;   85.181; -609.292; -507.474
412.039;   77.680; -755.289; -386.480
412.329;  237.272;   40.722;  132.501
412.619;  224.853;  -62.286; -148.485
412.909;  412.277;  639.711;  594.521
413.199;  394.729; -130.280; -251.495
413.490;  453.792;  521.710;  352.523
413.780;  157.658;-1013.279; -913.496
414.070;  357.315;  -46.276;  235.497
414.360;  411.893; -729.278; -666.498
414.650;  431.464; -726.288; -688.482
414.940;  512.707; -538.280; -441.496
415.230;  891.736;   50.712;   74.519
415.520; 5612.242;  155.730;   66.486
415.809;21903.841; -305.281; -125.493
416.099;16791.881; -388.277; -229.501
416.389; 4476.002;  435.726;  236.494
416.679; 2634.578;   91.738;   85.473
416.969;  478.122; -527.287; -503.483
417.259;  440.685;  341.721;  171.503
417.549;  677.490;  522.718;  318.508
417.838; 1499.984; -205.268; -147.518
418.128; 4798.723;  650.710;  492.522
418.418; 4029.268; -491.272; -579.509
418.708; 2725.152;    9.726;  -48.506
418.997;10127.348; -474.275; -480.505
419.287;10502.158; -733.273; -790.507
419.577; 9591.675; -160.283; -123.489
419.866;32273.054; -588.277; -498.501
420.156;34075.663; -242.270;  -55.513
420.446; 6380.246; -112.263;  -26.526
420.735;  990.758; -376.271; -446.512
421.025;  859.543; 1830.722;  315.502
421.314;  837.781; -203.271; -226.512
421.604; 2020.377;   89.732;  233.484
421.893; 1172.127; -705.271; -602.511
422.183;  257.596; -487.263; -461.526
422.472;  403.254;  -36.271; -107.511
422.762;  488.326; -416.266; -379.521
423.051;  274.591; -916.276; -916.503
423.341;  357.685; -491.273; -439.507
423.630;  452.232; -121.265;   15.477
423.919;  392.972;   58.725;   49.495
424.209;  369.876;  -31.263;   56.473
424.498;  480.231;   68.732;  161.483
424.787; 1017.237; -535.267; -601.518
425.077; 3221.255;   34.735;   29.478
425.366; 4946.932; -734.262; -744.528
425.655; 8904.261;  639.727;  259.493
425.945;17328.106; -313.247; -268.554
426.234; 9750.454;  117.741;  300.467
426.523; 4625.784;  -86.259; -350.534
426.812; 6357.772;  107.734;  159.480
427.101; 9105.473; -127.269; -323.515
427.390;11834.442;  -55.270;  -86.514
427.680; 3245.928; -624.257; -411.538
427.969;  539.763; -330.255; -301.540
428.258;  349.444; -385.257; -477.536
428.547;  602.122;  449.728;  397.490
428.836; 1551.804; -421.253; -398.543
429.125; 2282.485; -199.259;  -72.534
429.414;  945.376; -330.251; -294.548
429.703; 2834.051; -231.251; -213.548
429.992; 8323.329; -938.250; -828.549
430.281; 5426.614; -397.264; -331.524
430.570;  640.566;  -21.252;   32.454
430.859;  687.658;  279.741;  352.466
431.148;  531.452;  636.752;  631.446
431.437;  333.091;  391.748;  367.454
431.725;  169.871; -544.257; -481.536
432.014;  122.061; -845.253; -756.545
432.303;  423.625; -149.239; -105.569
432.592;  717.245; -460.263; -178.525
432.881; 1018.603; -601.248; -437.554
433.169; 5325.139; -343.255;  -61.540
433.458;10929.658;  445.765;  540.424
433.747; 4771.862; -397.261; -289.529
434.036; 1071.127; -275.242; -280.564
434.324; 1984.991; -395.249; -379.551
434.613; 3372.396;   40.757;  159.437
434.902; 1229.916;  333.760;  439.433
435.190;  855.549;   75.761;  295.431
435.479;  491.503;  -52.245;   83.441
435.767;  151.311; -411.244; -427.561
436.056;  284.298; -340.242; -294.563
436.345;  376.093; -372.240; -223.568
436.633;  416.361;   60.750;  383.450
436.922;  352.645;  208.760;  414.432
437.210;  946.723; -194.236;    1.426
437.499; 3112.856; -583.235; -432.576
437.787; 3347.348; -339.236;  -10.574
438.075;  781.680;   56.761;  162.430
438.364; 1057.407;  -44.238;  250.429
438.652;  642.008; -286.226; -138.592
438.941;  176.499;    3.770;  269.415
439.229;   43.064; -665.252; -466.545
439.517;   58.889; -160.234;  -85.577
439.806;   16.323; -501.225; -290.595
440.094;  231.972;  377.766;  650.421
440.382;  299.150; -653.233; -302.580
440.670;  303.431; -361.235; -285.576
440.959;   62.590; -347.223; -170.599
441.247;  121.060; -151.229; -109.587
441.535;  171.088; -266.235;   31.423
441.823;   82.169; -497.234; -305.578
442.111;  220.039;  173.771;  327.412
442.400;  740.078; -628.245; -335.559
442.688; 2078.621; -111.234; -620.579
442.976; 1585.025; -786.213; -450.617
443.264;  151.480; -324.224; -364.597
443.552;  142.909; -258.226;   51.408
443.840;  214.486;  602.765;  876.423
444.128;  134.325;  265.767;  269.420
444.416;   22.691; -694.228; -312.588
444.704;   51.094; -465.219;  -92.605
444.992;   89.712;   -0.226;  240.407
445.280;   71.974; -517.230;  -94.585
445.568;   75.029; -694.212; -396.618
445.856;  471.504; -174.221;  357.398
446.143; 1096.265;  -54.220;   -7.604
446.431;  882.195;  -25.228;  625.411
446.719;  293.962;  489.783;  675.391
447.007;  204.369;  481.769;  705.416
447.295;  199.487;  597.777;  871.402
447.583;  122.307; -464.229;  -34.587
447.870;  188.575; -434.221; -202.601
448.158;  543.648; -104.230;  129.415
448.446;  438.566; -800.219; -338.604
448.733;  202.356;   13.776;  269.403
449.021;  291.053;   60.788;  341.382
449.309;  206.343; -296.210;  208.379
449.596;  234.084;  128.783;   59.392
449.884;  163.369; -571.222; -325.600
450.172;  141.325; -756.227; -406.590
450.459;  400.684;  645.786;  780.387
450.747; 1995.607; -411.218; -147.608
451.034; 6326.471;  493.772;  889.411
451.322; 5204.362; -413.214; -170.614
451.609;  475.183;  292.777;  508.403
451.897;  516.103; -550.203; -183.634
452.184; 1543.788; -622.223; -400.598
452.472; 1487.288;   97.792;  269.375
452.759;  372.867;  512.781;  864.395
453.047;  158.176; -407.212; -125.617
453.334;  115.324; -732.219; -216.606
453.621;  134.939; -438.214; -161.615
453.909;  150.396;   13.796;  384.368
454.196;  143.189; -299.199; -123.641
454.483;  239.741;  317.798;  540.364
454.771;  157.016; -215.208;  196.374
455.058;   64.119; -316.207;  102.374
455.345;  111.118;   71.807;  344.347
455.632;   98.022; -128.207;  235.373
455.919;   47.261;  -82.196;  182.354
456.207;  -49.006; -774.198; -450.642
456.494;    4.128; -475.200;  -66.639
456.781;   10.537; -399.202; -198.635
457.068;   59.304; -253.206;  -29.628
457.355;    9.730; -698.206; -401.629
457.642;   14.185; -552.205; -290.630
457.929;   24.959; -778.194; -417.651
458.216;   70.476; -575.212; -354.617
458.503;  188.739; -173.193;  -19.652
458.790;  203.464; -864.208; -630.625
459.077;  254.316;  -77.202;  110.364
459.364;  717.952; -350.195; -210.649
459.651; 1462.852;  -46.206;  220.372
459.938;  704.905; -864.209; -665.623
460.225;  189.670;  132.799;  276.363
460.512;  -42.166; -836.197; -688.645
460.799;  115.681;  -32.218;  320.392
461.086;  105.957; -370.200; -251.640
461.372;   75.394; -509.198; -279.642
461.659;  161.387; -165.196;  108.354
461.946;   91.487; -445.193;  -54.651
462.233;  250.805;  842.800;  888.361
462.519;  328.902; -814.201; -464.639
462.806;  926.434; -768.197; -497.645
463.093;  767.032; -445.191;  -66.656
463.380;  -23.603; -920.186; -824.664
463.666;   70.161; -259.197;  -18.646
463.953;   98.722; -406.195; -243.648
464.239;  195.672; -173.195;  -77.648
464.526;  424.458;  413.806;  743.350
464.813;  396.418; -565.190; -304.658
465.099;  404.538;  606.807;  607.348
465.386;  390.992;  903.807;  921.348
465.672;   75.959; -694.197; -522.645
465.959;   56.911; -598.188; -520.662
466.245;   30.267; -468.193; -359.652
466.532;  127.345; -109.195;   63.352
466.818;  107.922; -357.186; -216.664
467.104;   26.286; -488.182; -415.672
467.391;   -4.130; -628.189; -459.658
467.677;   50.825; -289.186;    9.335
467.964;   11.177; -682.189; -471.660
468.250;   97.028; -331.186; -160.665
468.536;   89.821;   90.811;  180.341
468.822;  -28.436; -821.184; -574.668
469.109;  149.813;  351.827;  471.311
469.395;  209.101;  729.808;  787.346
469.681;  207.474;   46.811;  156.341
469.967; 1110.554; -699.188; -382.660
470.254; 2355.086; -494.188; -306.662
470.540; 1497.061; -601.196; -476.646
470.826;  214.046; -488.181; -397.675
471.112;  278.818;  288.816;  113.331
471.398;  109.597; -253.183;  -58.670
471.684;   43.399; -626.177; -447.680
471.970;   -4.775; -918.180; -981.675
472.256;   36.875; -521.192; -441.654
472.542;   38.124; -499.171; -434.691
472.828;   35.957; -743.182; -607.672
473.114;   67.741; -380.166; -283.700
473.400;   38.215; -504.175; -293.684
473.686;   44.672; -452.166; -400.701
473.972;   77.704; -230.174; -131.687
474.258;  -39.461; -925.173; -843.689
474.544;  156.091; -183.178;   -2.679
474.830;  246.441;  -65.175;   45.316
475.116;  378.420; -123.190; -196.658
475.401;  522.202; -558.180; -467.676
475.687;  173.801; -725.180; -718.676
475.973;   36.514; -673.181; -770.673
476.259;  288.418;  736.825;  764.315
476.544;  348.706; -539.176; -437.682
476.830;  677.170; -398.172; -322.690
477.116;  549.730; -430.177; -336.682
477.401;  149.502;  346.820;  358.324
477.687;  -18.760; -289.175; -405.684
477.973;   51.618;   21.819;   28.326
478.258;    3.592; -448.163; -348.706
478.544;   66.608;   21.815;   61.334
478.829;  -45.871; -818.171; -738.692
479.115;  -33.530; -749.172; -651.690
479.401;   -9.976; -444.174; -449.686
479.686;   30.826; -253.180;  -74.676
479.972;  -23.529; -886.178; -776.680
480.257;   34.592; -258.166;  -65.700
480.542;    4.308; -614.170; -469.693
480.828;  242.113; 1288.824; 1392.317
481.113;  -26.689; -464.176; -426.683
481.399;   -1.710; -236.161; -202.711
481.684;  -51.683; -620.166; -462.700
481.969;   27.278; -158.159;  -73.713
482.255;   -4.357; -439.169; -285.695
482.540;   10.546; -569.178; -441.680
482.825;    1.892; -395.187; -404.663
483.110;   81.772;  -85.169; -105.696
483.396;  143.499; -840.157; -652.718
483.681;  426.179;  543.826;  730.313
483.966;  120.547; -696.160; -700.712
484.251;   21.678; -404.174; -310.687
484.536;   27.652; -356.165; -378.703
484.822;   16.756; -205.173; -218.687
485.107;  -39.015; -599.152; -502.726
485.392;  125.083;  662.836;  541.296
485.677;   88.406;  354.832;  163.302
485.962;  119.371;  160.843;  270.283
486.247;  102.125;  -14.162;   -8.707
486.532;   55.719; -178.166; -325.701
486.817;  162.834;  381.839;  431.291
487.102;  129.294; -453.154; -514.722
487.387;  529.325; -637.156; -652.718
487.672;  917.538; -154.164;  -38.705
487.957;  579.116; -394.160; -286.711
488.241;  188.877; -290.150; -314.729
488.526;  594.837; -280.152; -148.726
488.811;  955.198; -881.177; -818.680
489.096;  743.597; -666.154; -702.723
489.381;  432.408;    3.847;  162.275
489.666;  276.815; -428.161; -510.710
489.950;  173.600;  558.846;  627.277
490.235;  -23.328; -480.151; -458.728
490.520;  -40.811; -756.161; -723.710
490.804;  -57.373; -827.156; -736.719
491.089;    3.442; -469.149; -299.732
491.374;   39.286; -132.164;  -75.704
491.658;   24.403; -817.147; -717.735
491.943;  204.716; -657.152; -609.727
492.227;  281.140; -178.155;  -38.721
492.512;   67.996; -294.157; -341.717
492.797;  -48.289; -713.149; -716.731
493.081;  -43.995; -588.147; -598.735
493.366;  -25.235; -751.161; -635.711
493.650;  212.082;  831.859;  917.254
493.935;   39.202; -648.147; -447.734
494.219;  -35.531; -778.142; -687.743
494.503;  -41.994; -585.150; -487.730
494.788;   40.413;   46.842;   74.285
495.072;   96.778;  184.850;  434.271
495.356;  159.995; -463.148; -343.733
495.641;  456.412; -812.146; -736.736
495.925;  451.807; -976.156; -903.719
496.209;   56.366; -599.149; -451.732
496.494;  -35.555; -763.142; -544.744
496.778;   21.144; -364.154; -360.722
497.062;  -66.668; -819.156; -627.719
497.346;  -36.882; -869.160; -640.711
497.631;  135.723;  580.852;  560.266
497.915;   87.797;  -64.145;  175.261
498.199;   73.074; -341.157; -277.718
498.483;   52.860; -562.152; -508.725
498.767;  185.704;  301.850;  300.271
499.051;  157.939; -126.149; -100.732
499.335;    4.187; -693.149; -739.731
499.619;  -19.221; -381.129; -423.767
499.903;   44.489; -272.155;  -65.721
500.187;   43.576; -588.153; -316.724
500.471;   20.865; -796.152; -595.727
500.755;  115.314;   62.839;  -96.710
501.039;   27.489; -270.155; -357.721
501.323;  109.808;  -21.141;  264.254
501.607;   56.042; -447.163; -503.706
501.891;   24.400; -607.156; -512.718
502.174;  -26.992; -726.144; -585.741
502.458;   85.269;   89.849;  370.273
502.742;   31.631; -180.138; -191.751
503.026;   87.702; -412.147; -254.734
503.310;  132.377; -437.159; -375.713
503.593;   93.953; -464.147; -325.735
503.877;  130.095; -232.133; -156.760
504.161;  203.803;    2.847;  -50.724
504.444;  136.940; -841.158; -710.716
504.728;  380.311; -487.164; -522.704
505.012;  574.576; -257.150;  -76.729
505.295;  436.665; -417.161; -212.711
505.579;  427.331; -256.156; -496.719
505.862;  576.893; -555.145; -333.738
506.146;  570.854; -681.159; -758.714
506.429;  343.755;  568.841;  461.286
506.713;   52.298; -732.151; -667.728
506.996;  281.094;   90.846;  295.278
507.280;  278.081; -633.165; -474.703
507.563;  196.562; -469.155; -261.721
507.847;   76.152; -423.153; -112.724
508.130;   63.591; -665.161; -456.711
508.413;   72.913; -758.167; -577.700
508.697;  196.438; -151.167;   12.300
508.980;  108.578; -422.153; -312.724
509.263;  -21.116; -466.155; -450.720
509.547;   38.001; -124.150;   82.271
509.830;   53.468; -172.160;  140.289
510.113;   90.256;  128.844;  298.281
510.396;   42.959; -530.152; -300.725
510.680;  289.295; -818.145; -812.738
510.963;  953.248;  184.846;  180.277
511.246;  889.083; -493.150; -357.730
511.529;  299.549; -482.145;  -83.739
511.812;  286.867; -250.134;   10.241
512.095;  198.070; -740.151; -396.728
512.378;   67.432; -317.147; -245.736
512.661;   32.664; -703.137; -623.753
512.944;   23.996; -750.142; -637.744
513.227;   54.761; -170.137; -171.752
513.510;   21.358; -479.144; -671.741
513.793;   29.438; -485.140; -435.747
514.076;  130.374;  -43.127;  -39.771
514.359;  114.642; -294.149; -135.732
514.642;   52.549; -442.142; -567.744
514.925;  598.536;  581.860;  561.253
515.208;  794.888; -498.134; -443.758
515.491;  510.327; -276.133; -182.761
515.773;  297.211; -410.143; -337.742
516.056; 1663.020;  249.864;  409.246
516.339; 2363.274; -754.136; -652.755
516.622; 2066.281; -518.150; -488.730
516.904; 1704.043;  882.857;  975.257
517.187;  812.335; -730.138; -523.752
517.470;  391.642; -568.143; -510.743
517.752;  361.626; -624.136; -470.756
518.035;  271.173; -708.139; -725.749
518.318;  291.024; -799.136; -744.755
518.600; 1844.880; -300.132; -325.762
518.883; 2562.449;  310.858;   88.256
519.165; 1269.078; -585.138; -426.751
519.448;  400.205;  -61.132;  -19.762
519.730;  238.432; -573.126; -415.773
520.013;  378.573;  588.867;  664.240
520.295; 1196.344;  -94.134;  -15.759
520.578; 2678.192; -335.131; -305.764
520.860; 2907.155; -254.132;   56.238
521.143; 1451.103; -763.135; -584.756
521.425;  475.769; -251.125; -279.775
521.707;  605.450; -622.127; -380.771
521.990; 1442.925; -199.127;  167.229
522.272; 1639.089; -116.140;   -4.748
522.554;  864.812; -237.143; -157.742
522.836;  457.567;  -24.134;   99.241
523.119;  252.026; -496.148; -189.734
523.401;  168.799; -448.130; -314.766
523.683;   80.689; -865.137; -693.753
523.965;  234.933;  408.862;  260.248
524.247;  228.614;   54.878;  170.220
524.529;  167.768; -451.134; -367.759
524.812;  327.526;   -3.130;  191.234
525.094;  680.857; -773.138; -631.751
525.376; 1088.628; -143.124;   78.223
525.658;  664.346; -441.136; -339.754
525.940;   20.389; -805.131; -671.764
526.222;   61.225; -188.136;  -88.755
526.504;  155.687; -190.131;   32.237
526.786;  294.746; -960.133; -647.760
527.068;  426.683; -124.123;  -67.778
527.349;  213.543; -865.137; -774.754
527.631;  144.105; -137.132;   22.238
527.913;  103.349; -664.127; -450.771
528.195;  112.937; -761.125; -639.774
528.477;  202.839;  -93.134;  -30.758
528.759;   83.201; -648.130; -522.766
529.040;   43.432; -569.123; -293.778
529.322;   47.540; -235.125;  -10.774
529.604;  173.553;  -47.130;   93.233
529.886;  167.731; -546.126; -302.773
530.167;  151.795;  232.870;  192.235
530.449;   59.657;    1.853;   63.265
530.731;    9.689; -572.122; -459.779
531.012;   48.759; -513.120; -216.784
531.294;   60.021; -118.116;  -43.792
531.575;  116.869;  290.875;  538.225
531.857;   34.209; -548.135; -266.757
532.138;   94.882; -113.141;   40.254
532.420;  201.080;  294.865;  403.244
532.701;  311.523; -722.133; -751.760
532.983;  432.476;  232.867;  182.239
533.264;  152.979; -243.126;  175.228
533.546;  -20.926; -491.136; -508.755
533.827;   64.070;  173.867;   -1.759
534.109;   74.884; -352.135;  -80.757
534.390;  111.084; -725.132; -582.762
534.671;  249.080; -270.135;  -82.756
534.953;  146.435; -751.123; -611.779
535.234;   24.357; -426.117; -255.789
535.515;  -88.133; -891.119; -735.785
535.796;  -17.905; -431.128; -193.770
536.078; -127.623;-1050.124; -904.777
536.359;   16.885;  -22.123;    3.221
536.640;  -20.461; -480.125; -197.774
536.921;  163.758;  225.871;  143.232
537.202;  320.054;  -87.138;  -16.751
537.483;  394.467;  251.869;  377.236
537.764;  146.345;   17.870;   98.235
538.045;  -32.287; -543.134; -371.758
538.326;  -23.815; -596.129; -447.768
538.607;    1.451; -686.127; -476.771
538.888;  156.225;   98.879;    5.218
