
Integration time [ms]: 200.000
Averaging Nr. [scans]: 10
Smoothing Nr. [pixels]: 0
Data measured with spectrometer [name]: 2101013U2
Wave   ;Sample   ;Dark     ;Reference
[nm]   ;[counts] ;[counts] ;[counts] 

394.013;  138.220; -450.257; -315.536
394.305;  435.816; -461.258; -419.536
394.596; 1799.348; -676.269; -527.514
394.887; 4214.275; -796.268; -654.518
395.178; 1691.825;  145.736;   11.476
395.470;  162.443; -210.263; -356.526
395.761;  471.699;  305.734;  394.479
396.052;  673.844; -545.284; -306.489
396.343;  684.858; -557.276; -454.503
396.634;  246.907; -200.279; -290.497
396.926;  231.171; -618.268; -565.517
397.217;  255.465;   11.725;  -17.504
397.508;  114.191; -366.273; -154.507
397.799;   96.907; -555.279; -571.497
398.090;  -13.503; -973.280; -902.495
398.381;  235.421;   11.708;  -11.473
398.672;   -9.277; -585.292; -742.473
398.963;  125.816; -348.279; -373.498
399.254;  221.038;   54.709; -209.475
399.545;  -89.306;-1017.266; -883.520
399.836;  148.540; -407.277; -343.501
400.127;  137.282; -205.295; -209.468
400.418;  132.582; -423.274; -392.506
400.709;  158.676; -359.281; -333.493
401.000;  169.544; -268.291; -309.476
401.290;  220.479;  225.698;  115.545
401.581;  157.215; -166.286; -228.485
401.872;   43.737; -542.298; -486.462
402.163;  118.770; -313.296; -252.467
402.454;  206.739; -123.291; -163.475
402.744;  122.556; -844.297; -813.465
403.035;  751.607; -226.293;  -86.471
403.326;  988.728; -366.292; -384.474
403.617;  691.728;  204.701;  165.539
403.907;  430.153; -593.283; -679.490
404.198; 3846.104; -545.307; -599.446
404.489; 9828.061; -618.283; -588.491
404.779; 3620.584; -618.302; -660.456
405.070;  459.450;  -67.304; -174.451
405.360;  611.510; -259.293; -238.472
405.651;  667.303;  125.699;   98.542
405.942;  388.308;  209.714;  127.516
406.232;  565.431; -432.285; -413.487
406.523;  965.498;  641.706;  758.530
406.813;  179.111; -579.286; -644.484
407.104;  758.619;  261.708;  144.527
407.394;  403.330; -604.299; -591.462
407.685;  320.630;  336.715;  222.513
407.975;   94.559; -400.283; -382.490
408.265;  232.562; -134.289; -190.478
408.556;  146.634; -472.291; -459.475
408.846;  345.000;  474.706;  429.530
409.137;  198.876;   -1.288; -216.480
409.427;  100.331; -193.285; -271.487
409.717;   65.696; -776.273; -692.508
410.007;  294.320;    4.715; -170.486
410.298;  208.987; -360.295; -342.469
410.588;  160.727; -495.285; -510.486
410.878;   57.194; -792.287; -873.482
411.168;  212.241; -481.298; -478.463
411.459;  225.450; -295.283; -242.489
411.749;  136.832; -609.292; -507.474
412.039;  124.173; -755.289; -386.480
412.329;  387.828;   40.722;  132.501
412.619;  380.112;  -62.286; -148.485
412.909;  708.767;  639.711;  594.521
413.199;  676.198; -130.280; -251.495
413.490;  803.352;  521.710;  352.523
413.780;  198.304;-1013.279; -913.496
414.070;  620.559;  -46.276;  235.497
414.360;  636.622; -729.278; -666.498
414.650;  716.188; -726.288; -688.482
414.940;  908.903; -538.280; -441.496
415.230; 1540.283;   50.712;   74.519
415.520;10406.247;  155.730;   66.486
415.809;38813.976; -305.281; -125.493
416.099;30793.643; -388.277; -229.501
416.389; 8252.078;  435.726;  236.494
416.679; 4958.649;   91.738;   85.473
416.969;  914.902; -527.287; -503.483
417.259; 1044.707;  341.721;  171.503
417.549; 1194.874;  522.718;  318.508
417.838; 2675.474; -205.268; -147.518
418.128; 8594.960;  650.710;  492.522
418.418; 7414.306; -491.272; -579.509
418.708; 5043.178;    9.726;  -48.506
418.997;18153.472; -474.275; -480.505
419.287;18918.490; -733.273; -790.507
419.577;17813.549; -160.283; -123.489
419.866;56692.540; -588.277; -498.501
420.156;58862.140; -242.270;  -55.513
420.446;11618.337; -112.263;  -26.526
420.735; 1616.230; -376.271; -446.512
421.025; 1632.821; 1830.722;  315.502
421.314; 1375.927; -203.271; -226.512
421.604; 2841.562;   89.732;  233.484
421.893; 1689.721; -705.271; -602.511
422.183;  461.137; -487.263; -461.526
422.472;  676.524;  -36.271; -107.511
422.762;  822.904; -416.266; -379.521
423.051;  446.460; -916.276; -916.503
423.341;  577.293; -491.273; -439.507
423.630;  739.113; -121.265;   15.477
423.919;  721.170;   58.725;   49.495
424.209;  659.946;  -31.263;   56.473
424.498;  859.970;   68.732;  161.483
424.787; 1746.881; -535.267; -601.518
425.077; 5406.211;   34.735;   29.478
425.366; 7699.955; -734.262; -744.528
425.655;15382.494;  639.727;  259.493
425.945;30611.766; -313.247; -268.554
426.234;17923.592;  117.741;  300.467
426.523; 8274.901;  -86.259; -350.534
426.812;11462.097;  107.734;  159.480
427.101;16083.357; -127.269; -323.515
427.390;20573.546;  -55.270;  -86.514
427.680; 5047.233; -624.257; -411.538
427.969;  942.251; -330.255; -301.540
428.258;  580.719; -385.257; -477.536
428.547; 1053.213;  449.728;  397.490
428.836; 2288.577; -421.253; -398.543
429.125; 3307.604; -199.259;  -72.534
429.414; 1575.914; -330.251; -294.548
429.703; 5292.614; -231.251; -213.548
429.992;14782.020; -938.250; -828.549
430.281;10093.325; -397.264; -331.524
430.570; 1170.698;  -21.252;   32.454
430.859; 1176.200;  279.741;  352.466
431.148; 1039.659;  636.752;  631.446
431.437;  658.498;  391.748;  367.454
431.725;  318.822; -544.257; -481.536
432.014;  232.089; -845.253; -756.545
432.303;  717.082; -149.239; -105.569
432.592; 1133.836; -460.263; -178.525
432.881; 1755.661; -601.248; -437.554
433.169; 9882.352; -343.255;  -61.540
433.458;19211.938;  445.765;  540.424
433.747; 8626.264; -397.261; -289.529
434.036; 1686.343; -275.242; -280.564
434.324; 3439.540; -395.249; -379.551
434.613; 5823.332;   40.757;  159.437
434.902; 2248.966;  333.760;  439.433
435.190; 1289.080;   75.761;  295.431
435.479;  754.803;  -52.245;   83.441
435.767;  267.516; -411.244; -427.561
436.056;  480.736; -340.242; -294.563
436.345;  659.870; -372.240; -223.568
436.633;  717.632;   60.750;  383.450
436.922;  621.474;  208.760;  414.432
437.210; 1439.721; -194.236;    1.426
437.499; 4115.334; -583.235; -432.576
437.787; 4578.621; -339.236;  -10.574
438.075; 1203.990;   56.761;  162.430
438.364; 1508.494;  -44.238;  250.429
438.652;  986.364; -286.226; -138.592
438.941;  329.406;    3.770;  269.415
439.229;   55.694; -665.252; -466.545
439.517;  113.748; -160.234;  -85.577
439.806;    8.290; -501.225; -290.595
440.094;  384.261;  377.766;  650.421
440.382;  438.067; -653.233; -302.580
440.670;  432.834; -361.235; -285.576
440.959;  102.219; -347.223; -170.599
441.247;  182.724; -151.229; -109.587
441.535;  208.045; -266.235;   31.423
441.823;   88.756; -497.234; -305.578
442.111;  390.731;  173.771;  327.412
442.400; 1062.002; -628.245; -335.559
442.688; 2849.660; -111.234; -620.579
442.976; 2115.162; -786.213; -450.617
443.264;  230.701; -324.224; -364.597
443.552;  259.966; -258.226;   51.408
443.840;  392.943;  602.765;  876.423
444.128;  263.765;  265.767;  269.420
444.416;   24.036; -694.228; -312.588
444.704;   45.867; -465.219;  -92.605
444.992;  185.571;   -0.226;  240.407
445.280;   93.807; -517.230;  -94.585
445.568;  115.967; -694.212; -396.618
445.856;  654.341; -174.221;  357.398
446.143; 1453.861;  -54.220;   -7.604
446.431; 1262.642;  -25.228;  625.411
446.719;  526.398;  489.783;  675.391
447.007;  392.398;  481.769;  705.416
447.295;  391.214;  597.777;  871.402
447.583;  152.721; -464.229;  -34.587
447.870;  265.836; -434.221; -202.601
448.158;  758.605; -104.230;  129.415
448.446;  605.062; -800.219; -338.604
448.733;  329.103;   13.776;  269.403
449.021;  476.267;   60.788;  341.382
449.309;  346.591; -296.210;  208.379
449.596;  404.092;  128.783;   59.392
449.884;  273.025; -571.222; -325.600
450.172;  240.050; -756.227; -406.590
450.459;  749.934;  645.786;  780.387
450.747; 3772.790; -411.218; -147.608
451.034;11283.844;  493.772;  889.411
451.322; 9373.639; -413.214; -170.614
451.609;  946.806;  292.777;  508.403
451.897;  934.294; -550.203; -183.634
452.184; 2812.114; -622.223; -400.598
452.472; 2745.926;   97.792;  269.375
452.759;  715.164;  512.781;  864.395
453.047;  231.563; -407.212; -125.617
453.334;  200.376; -732.219; -216.606
453.621;  222.043; -438.214; -161.615
453.909;  285.781;   13.796;  384.368
454.196;  270.055; -299.199; -123.641
454.483;  457.815;  317.798;  540.364
454.771;  287.831; -215.208;  196.374
455.058;  119.336; -316.207;  102.374
455.345;  267.045;   71.807;  344.347
455.632;  151.042; -128.207;  235.373
455.919;  135.691;  -82.196;  182.354
456.207;  -85.738; -774.198; -450.642
456.494;   22.835; -475.200;  -66.639
456.781;   20.508; -399.202; -198.635
457.068;  134.952; -253.206;  -29.628
457.355;   48.054; -698.206; -401.629
457.642;   -1.037; -552.205; -290.630
457.929;   20.330; -778.194; -417.651
458.216;  129.863; -575.212; -354.617
458.503;  386.438; -173.193;  -19.652
458.790;  368.127; -864.208; -630.625
459.077;  503.016;  -77.202;  110.364
459.364; 1338.519; -350.195; -210.649
459.651; 2663.849;  -46.206;  220.372
459.938; 1274.412; -864.209; -665.623
460.225;  321.021;  132.799;  276.363
460.512;  -35.413; -836.197; -688.645
460.799;  261.088;  -32.218;  320.392
461.086;  166.242; -370.200; -251.640
461.372;  140.563; -509.198; -279.642
461.659;  270.893; -165.196;  108.354
461.946;  175.835; -445.193;  -54.651
462.233;  540.138;  842.800;  888.361
462.519;  644.633; -814.201; -464.639
462.806; 1585.088; -768.197; -497.645
463.093; 1451.769; -445.191;  -66.656
463.380;  -37.664; -920.186; -824.664
463.666;  133.491; -259.197;  -18.646
463.953;  174.710; -406.195; -243.648
464.239;  330.010; -173.195;  -77.648
464.526;  767.928;  413.806;  743.350
464.813;  633.788; -565.190; -304.658
465.099;  713.037;  606.807;  607.348
465.386;  734.643;  903.807;  921.348
465.672;   93.688; -694.197; -522.645
465.959;  130.017; -598.188; -520.662
466.245;  104.744; -468.193; -359.652
466.532;  277.207; -109.195;   63.352
466.818;  196.536; -357.186; -216.664
467.104;   61.801; -488.182; -415.672
467.391;   22.691; -628.189; -459.658
467.677;  126.142; -289.186;    9.335
467.964;   92.402; -682.189; -471.660
468.250;  218.646; -331.186; -160.665
468.536;  213.293;   90.811;  180.341
468.822;  -11.435; -821.184; -574.668
469.109;  337.633;  351.827;  471.311
469.395;  483.159;  729.808;  787.346
469.681;  439.198;   46.811;  156.341
469.967; 2127.106; -699.188; -382.660
470.254; 4194.718; -494.188; -306.662
470.540; 2747.991; -601.196; -476.646
470.826;  391.219; -488.181; -397.675
471.112;  484.971;  288.816;  113.331
471.398;  227.179; -253.183;  -58.670
471.684;  138.766; -626.177; -447.680
471.970;   -7.374; -918.180; -981.675
472.256;   96.558; -521.192; -441.654
472.542;   61.851; -499.171; -434.691
472.828;   70.295; -743.182; -607.672
473.114;  156.522; -380.166; -283.700
473.400;  109.392; -504.175; -293.684
473.686;  124.032; -452.166; -400.701
473.972;  153.116; -230.174; -131.687
474.258;  -69.167; -925.173; -843.689
474.544;  333.152; -183.178;   -2.679
474.830;  489.695;  -65.175;   45.316
475.116;  740.590; -123.190; -196.658
475.401;  923.029; -558.180; -467.676
475.687;  273.728; -725.180; -718.676
475.973;   31.508; -673.181; -770.673
476.259;  515.799;  736.825;  764.315
476.544;  660.579; -539.176; -437.682
476.830; 1187.444; -398.172; -322.690
477.116; 1041.276; -430.177; -336.682
477.401;  297.229;  346.820;  358.324
477.687;  -28.107; -289.175; -405.684
477.973;  101.313;   21.819;   28.326
478.258;   14.065; -448.163; -348.706
478.544;  118.855;   21.815;   61.334
478.829; -106.840; -818.171; -738.692
479.115;  -36.756; -749.172; -651.690
479.401;   15.909; -444.174; -449.686
479.686;  115.027; -253.180;  -74.676
479.972;  -71.640; -886.178; -776.680
480.257;  136.324; -258.166;  -65.700
480.542;   34.966; -614.170; -469.693
480.828;  535.790; 1288.824; 1392.317
481.113;  -28.714; -464.176; -426.683
481.399;   39.904; -236.161; -202.711
481.684;  -51.277; -620.166; -462.700
481.969;  102.426; -158.159;  -73.713
482.255;   20.983; -439.169; -285.695
482.540;   24.561; -569.178; -441.680
482.825;   57.728; -395.187; -404.663
483.110;  168.789;  -85.169; -105.696
483.396;  303.461; -840.157; -652.718
483.681;  838.616;  543.826;  730.313
483.966;  264.616; -696.160; -700.712
484.251;   59.415; -404.174; -310.687
484.536;   40.041; -356.165; -378.703
484.822;   86.020; -205.173; -218.687
485.107;  -14.477; -599.152; -502.726
485.392;  286.550;  662.836;  541.296
485.677;  150.505;  354.832;  163.302
485.962;  259.557;  160.843;  270.283
486.247;  216.278;  -14.162;   -8.707
486.532;  141.326; -178.166; -325.701
486.817;  316.495;  381.839;  431.291
487.102;  196.795; -453.154; -514.722
487.387; 1022.664; -637.156; -652.718
487.672; 1706.258; -154.164;  -38.705
487.957; 1111.906; -394.160; -286.711
488.241;  345.350; -290.150; -314.729
488.526; 1169.625; -280.152; -148.726
488.811; 1754.864; -881.177; -818.680
489.096; 1306.300; -666.154; -702.723
489.381;  794.019;    3.847;  162.275
489.666;  543.903; -428.161; -510.710
489.950;  351.305;  558.846;  627.277
490.235;  -31.058; -480.151; -458.728
490.520;  -72.298; -756.161; -723.710
490.804;  -70.933; -827.156; -736.719
491.089;   -4.124; -469.149; -299.732
491.374;   70.056; -132.164;  -75.704
491.658;  -11.605; -817.147; -717.735
491.943;  282.832; -657.152; -609.727
492.227;  475.289; -178.155;  -38.721
492.512;  152.656; -294.157; -341.717
492.797;  -98.334; -713.149; -716.731
493.081;  -60.701; -588.147; -598.735
493.366;  -37.096; -751.161; -635.711
493.650;  457.186;  831.859;  917.254
493.935;   66.894; -648.147; -447.734
494.219;  -90.835; -778.142; -687.743
494.503;  -56.742; -585.150; -487.730
494.788;   92.543;   46.842;   74.285
495.072;  234.252;  184.850;  434.271
495.356;  298.881; -463.148; -343.733
495.641;  737.310; -812.146; -736.736
495.925;  701.975; -976.156; -903.719
496.209;  125.875; -599.149; -451.732
496.494;  -55.534; -763.142; -544.744
496.778;   52.396; -364.154; -360.722
497.062; -120.225; -819.156; -627.719
497.346;  -69.191; -869.160; -640.711
497.631;  290.887;  580.852;  560.266
497.915;  189.327;  -64.145;  175.261
498.199;  146.161; -341.157; -277.718
498.483;  107.723; -562.152; -508.725
498.767;  359.454;  301.850;  300.271
499.051;  326.271; -126.149; -100.732
499.335;   51.768; -693.149; -739.731
499.619;  -51.550; -381.129; -423.767
499.903;   67.186; -272.155;  -65.721
500.187;   93.407; -588.153; -316.724
500.471;   34.231; -796.152; -595.727
500.755;  251.702;   62.839;  -96.710
501.039;   90.787; -270.155; -357.721
501.323;  233.589;  -21.141;  264.254
501.607;  102.866; -447.163; -503.706
501.891;   27.763; -607.156; -512.718
502.174;  -10.855; -726.144; -585.741
502.458;  176.638;   89.849;  370.273
502.742;  108.927; -180.138; -191.751
503.026;  177.893; -412.147; -254.734
503.310;  280.724; -437.159; -375.713
503.593;  204.096; -464.147; -325.735
503.877;  251.693; -232.133; -156.760
504.161;  354.211;    2.847;  -50.724
504.444;  199.846; -841.158; -710.716
504.728;  734.955; -487.164; -522.704
505.012; 1042.849; -257.150;  -76.729
505.295;  930.904; -417.161; -212.711
505.579;  819.974; -256.156; -496.719
505.862; 1135.821; -555.145; -333.738
506.146; 1036.328; -681.159; -758.714
506.429;  726.029;  568.841;  461.286
506.713;   92.945; -732.151; -667.728
506.996;  562.595;   90.846;  295.278
507.280;  485.847; -633.165; -474.703
507.563;  387.184; -469.155; -261.721
507.847;  146.409; -423.153; -112.724
508.130;  154.905; -665.161; -456.711
508.413;  169.017; -758.167; -577.700
508.697;  416.617; -151.167;   12.300
508.980;  272.111; -422.153; -312.724
509.263;   10.978; -466.155; -450.720
509.547;   98.849; -124.150;   82.271
509.830;  125.209; -172.160;  140.289
510.113;  195.574;  128.844;  298.281
510.396;   98.420; -530.152; -300.725
510.680;  398.823; -818.145; -812.738
510.963; 1429.902;  184.846;  180.277
511.246; 1204.461; -493.150; -357.730
511.529;  536.231; -482.145;  -83.739
511.812;  544.587; -250.134;   10.241
512.095;  343.940; -740.151; -396.728
512.378;  152.502; -317.147; -245.736
512.661;   64.540; -703.137; -623.753
512.944;   73.768; -750.142; -637.744
513.227;  157.835; -170.137; -171.752
513.510;   82.645; -479.144; -671.741
513.793;   71.896; -485.140; -435.747
514.076;  262.384;  -43.127;  -39.771
514.359;  238.676; -294.149; -135.732
514.642;  171.173; -442.142; -567.744
514.925; 1266.593;  581.860;  561.253
515.208; 1410.182; -498.134; -443.758
515.491; 1032.704; -276.133; -182.761
515.773;  633.751; -410.143; -337.742
516.056; 3258.850;  249.864;  409.246
516.339; 4156.257; -754.136; -652.755
516.622; 3368.658; -518.150; -488.730
516.904; 2462.162;  882.857;  975.257
517.187; 1137.533; -730.138; -523.752
517.470;  667.761; -568.143; -510.743
517.752;  635.061; -624.136; -470.756
518.035;  509.213; -708.139; -725.749
518.318;  605.557; -799.136; -744.755
518.600; 3630.810; -300.132; -325.762
518.883; 4669.972;  310.858;   88.256
519.165; 2400.521; -585.138; -426.751
519.448;  669.909;  -61.132;  -19.762
519.730;  333.796; -573.126; -415.773
520.013;  677.198;  588.867;  664.240
520.295; 1787.090;  -94.134;  -15.759
520.578; 3817.230; -335.131; -305.764
520.860; 4106.010; -254.132;   56.238
521.143; 2153.665; -763.135; -584.756
521.425;  809.317; -251.125; -279.775
521.707; 1115.985; -622.127; -380.771
521.990; 2794.386; -199.127;  167.229
522.272; 2987.098; -116.140;   -4.748
522.554; 1572.752; -237.143; -157.742
522.836;  716.887;  -24.134;   99.241
523.119;  410.891; -496.148; -189.734
523.401;  278.242; -448.130; -314.766
523.683;  123.041; -865.137; -693.753
523.965;  507.630;  408.862;  260.248
524.247;  442.552;   54.878;  170.220
524.529;  336.390; -451.134; -367.759
524.812;  609.445;   -3.130;  191.234
525.094; 1287.829; -773.138; -631.751
525.376; 1955.832; -143.124;   78.223
525.658; 1240.352; -441.136; -339.754
525.940;   38.125; -805.131; -671.764
526.222;  112.258; -188.136;  -88.755
526.504;  262.522; -190.131;   32.237
526.786;  361.794; -960.133; -647.760
527.068;  611.441; -124.123;  -67.778
527.349;  272.447; -865.137; -774.754
527.631;  272.709; -137.132;   22.238
527.913;  220.084; -664.127; -450.771
528.195;  216.006; -761.125; -639.774
528.477;  403.282;  -93.134;  -30.758
528.759;  162.144; -648.130; -522.766
529.040;   91.439; -569.123; -293.778
529.322;  138.110; -235.125;  -10.774
529.604;  302.248;  -47.130;   93.233
529.886;  244.796; -546.126; -302.773
530.167;  280.735;  232.870;  192.235
530.449;   94.901;    1.853;   63.265
530.731;   35.151; -572.122; -459.779
531.012;  113.584; -513.120; -216.784
531.294;  146.048; -118.116;  -43.792
531.575;  304.517;  290.875;  538.225
531.857;   85.874; -548.135; -266.757
532.138;  230.986; -113.141;   40.254
532.420;  358.467;  294.865;  403.244
532.701;  394.598; -722.133; -751.760
532.983;  705.003;  232.867;  182.239
533.264;  253.993; -243.126;  175.228
533.546;  -36.542; -491.136; -508.755
533.827;  112.992;  173.867;   -1.759
534.109;  102.973; -352.135;  -80.757
534.390;  176.716; -725.132; -582.762
534.671;  439.267; -270.135;  -82.756
534.953;  217.744; -751.123; -611.779
535.234;   83.124; -426.117; -255.789
535.515; -135.402; -891.119; -735.785
535.796;  -16.123; -431.128; -193.770
536.078; -181.368;-1050.124; -904.777
536.359;   64.545;  -22.123;    3.221
536.640;   14.709; -480.125; -197.774
536.921;  332.257;  225.871;  143.232
537.202;  602.924;  -87.138;  -16.751
537.483;  718.630;  251.869;  377.236
537.764;  322.735;   17.870;   98.235
538.045;  -22.620; -543.134; -371.758
538.326;  -13.340; -596.129; -447.768
538.607;   22.486; -686.127; -476.771
538.888;  261.370;   98.879;    5.218
