
Integration time [ms]: 100.000
Averaging Nr. [scans]: 40
Smoothing Nr. [pixels]: 0
Data measured with spectrometer [name]: 2101013U2
Wave   ;Sample   ;Dark     ;Reference
[nm]   ;[counts] ;[counts] ;[counts] 

394.013;   39.958; -450.257; -315.536
394.305;  178.356; -461.258; -419.536
394.596; 1574.057; -676.269; -527.514
394.887; 4093.327; -796.268; -654.518
395.178; 1477.389;  145.736;   11.476
395.470;   73.352; -210.263; -356.526
395.761;  135.670;  305.734;  394.479
396.052;  109.883; -545.284; -306.489
396.343;   88.391; -557.276; -454.503
396.634;   45.929; -200.279; -290.497
396.926;    9.549; -618.268; -565.517
397.217;   66.622;   11.725;  -17.504
397.508;   23.941; -366.273; -154.507
397.799;   22.729; -555.279; -571.497
398.090;    2.422; -973.280; -902.495
398.381;   88.468;   11.708;  -11.473
398.672;  -37.055; -585.292; -742.473
398.963;   19.736; -348.279; -373.498
399.254;   70.606;   54.709; -209.475
399.545;  -20.534;-1017.266; -883.520
399.836;   47.003; -407.277; -343.501
400.127;   52.640; -205.295; -209.468
400.418;   36.909; -423.274; -392.506
400.709;   31.457; -359.281; -333.493
401.000;   39.060; -268.291; -309.476
401.290;  100.589;  225.698;  115.545
401.581;   53.437; -166.286; -228.485
401.872;   30.632; -542.298; -486.462
402.163;   44.856; -313.296; -252.467
402.454;   80.781; -123.291; -163.475
402.744;   31.446; -844.297; -813.465
403.035;  226.158; -226.293;  -86.471
403.326;  293.073; -366.292; -384.474
403.617;  304.475;  204.701;  165.539
403.907;  334.065; -593.283; -679.490
404.198; 3512.660; -545.307; -599.446
404.489; 9021.771; -618.283; -588.491
404.779; 2543.043; -618.302; -660.456
405.070;  280.393;  -67.304; -174.451
405.360;  460.010; -259.293; -238.472
405.651;  440.807;  125.699;   98.542
405.942;  166.432;  209.714;  127.516
406.232;   66.449; -432.285; -413.487
406.523;  229.927;  641.706;  758.530
406.813;   28.509; -579.286; -644.484
407.104;  181.767;  261.708;  144.527
407.394;   58.476; -604.299; -591.462
407.685;  125.123;  336.715;  222.513
407.975;   67.594; -400.283; -382.490
408.265;   97.199; -134.289; -190.478
408.556;   53.478; -472.291; -459.475
408.846;  174.753;  474.706;  429.530
409.137;  100.859;   -1.288; -216.480
409.427;   78.174; -193.285; -271.487
409.717;   34.670; -776.273; -692.508
410.007;  132.741;    4.715; -170.486
410.298;   96.443; -360.295; -342.469
410.588;   98.146; -495.285; -510.486
410.878;   48.397; -792.287; -873.482
411.168;  109.535; -481.298; -478.463
411.459;  117.813; -295.283; -242.489
411.749;   72.376; -609.292; -507.474
412.039;   78.507; -755.289; -386.480
412.329;  234.320;   40.722;  132.501
412.619;  220.985;  -62.286; -148.485
412.909;  366.352;  639.711;  594.521
413.199;  300.973; -130.280; -251.495
413.490;  386.241;  521.710;  352.523
413.780;  192.452;-1013.279; -913.496
414.070;  376.043;  -46.276;  235.497
414.360;  397.190; -729.278; -666.498
414.650;  526.392; -726.288; -688.482
414.940;  724.777; -538.280; -441.496
415.230; 1221.289;   50.712;   74.519
415.520; 8333.707;  155.730;   66.486
415.809;33731.556; -305.281; -125.493
416.099;25519.781; -388.277; -229.501
416.389; 7618.756;  435.726;  236.494
416.679; 4445.907;   91.738;   85.473
416.969;  758.177; -527.287; -503.483
417.259;  633.879;  341.721;  171.503
417.549;  865.905;  522.718;  318.508
417.838; 2323.927; -205.268; -147.518
418.128; 8187.672;  650.710;  492.522
418.418; 6727.602; -491.272; -579.509
418.708; 4458.657;    9.726;  -48.506
418.997;17477.652; -474.275; -480.505
419.287;17910.965; -733.273; -790.507
419.577;17586.337; -160.283; -123.489
419.866;56235.479; -588.277; -498.501
420.156;54717.602; -242.270;  -55.513
420.446; 9107.498; -112.263;  -26.526
420.735;  862.670; -376.271; -446.512
421.025;  913.489; 1830.722;  315.502
421.314;  532.367; -203.271; -226.512
421.604;  646.218;   89.732;  233.484
421.893;  412.413; -705.271; -602.511
422.183;  269.923; -487.263; -461.526
422.472;  387.665;  -36.271; -107.511
422.762;  406.948; -416.266; -379.521
423.051;  261.293; -916.276; -916.503
423.341;  302.267; -491.273; -439.507
423.630;  407.780; -121.265;   15.477
423.919;  440.951;   58.725;   49.495
424.209;  461.379;  -31.263;   56.473
424.498;  634.824;   68.732;  161.483
424.787; 1465.881; -535.267; -601.518
425.077; 4277.254;   34.735;   29.478
425.366; 4682.511; -734.262; -744.528
425.655;13476.693;  639.727;  259.493
425.945;34815.615; -313.247; -268.554
426.234;18398.563;  117.741;  300.467
426.523; 7148.869;  -86.259; -350.534
426.812; 9703.943;  107.734;  159.480
427.101;14666.889; -127.269; -323.515
427.390;17322.881;  -55.270;  -86.514
427.680; 2465.743; -624.257; -411.538
427.969;  501.431; -330.255; -301.540
428.258;  348.283; -385.257; -477.536
428.547;  504.007;  449.728;  397.490
428.836;  707.350; -421.253; -398.543
429.125;  988.996; -199.259;  -72.534
429.414;  750.452; -330.251; -294.548
429.703; 4455.727; -231.251; -213.548
429.992;13794.681; -938.250; -828.549
430.281; 8733.064; -397.264; -331.524
430.570;  616.441;  -21.252;   32.454
430.859;  405.444;  279.741;  352.466
431.148;  400.335;  636.752;  631.446
431.437;  307.540;  391.748;  367.454
431.725;  190.260; -544.257; -481.536
432.014;  205.109; -845.253; -756.545
432.303;  404.750; -149.239; -105.569
432.592;  541.097; -460.263; -178.525
432.881; 1398.161; -601.248; -437.554
433.169; 9454.132; -343.255;  -61.540
433.458;19139.291;  445.765;  540.424
433.747; 7501.018; -397.261; -289.529
434.036;  930.797; -275.242; -280.564
434.324; 2866.671; -395.249; -379.551
434.613; 5212.814;   40.757;  159.437
434.902; 1509.039;  333.760;  439.433
435.190;  292.074;   75.761;  295.431
435.479;  160.342;  -52.245;   83.441
435.767;   79.252; -411.244; -427.561
436.056;  209.391; -340.242; -294.563
436.345;  480.416; -372.240; -223.568
436.633;  455.765;   60.750;  383.450
436.922;  193.544;  208.760;  414.432
437.210;  208.154; -194.236;    1.426
437.499;  421.163; -583.235; -432.576
437.787;  523.503; -339.236;  -10.574
438.075;  180.731;   56.761;  162.430
438.364;  206.609;  -44.238;  250.429
438.652;   98.883; -286.226; -138.592
438.941;   74.116;    3.770;  269.415
439.229;  -19.513; -665.252; -466.545
439.517;   31.173; -160.234;  -85.577
439.806;  -20.423; -501.225; -290.595
440.094;  127.782;  377.766;  650.421
440.382;   45.562; -653.233; -302.580
440.670;   47.188; -361.235; -285.576
440.959;   -4.452; -347.223; -170.599
441.247;   39.204; -151.229; -109.587
441.535;   38.121; -266.235;   31.423
441.823;   -4.921; -497.234; -305.578
442.111;  158.084;  173.771;  327.412
442.400;  282.966; -628.245; -335.559
442.688;  478.507; -111.234; -620.579
442.976;  211.328; -786.213; -450.617
443.264;   27.460; -324.224; -364.597
443.552;   62.210; -258.226;   51.408
443.840;  126.720;  602.765;  876.423
444.128;  104.411;  265.767;  269.420
444.416;  -11.113; -694.228; -312.588
444.704;   20.008; -465.219;  -92.605
444.992;   35.938;   -0.226;  240.407
445.280;   12.316; -517.230;  -94.585
445.568;    1.032; -694.212; -396.618
445.856;  140.339; -174.221;  357.398
446.143;  219.329;  -54.220;   -7.604
446.431;  212.292;  -25.228;  625.411
446.719;  165.981;  489.783;  675.391
447.007;  148.835;  481.769;  705.416
447.295;  132.694;  597.777;  871.402
447.583;   83.576; -464.229;  -34.587
447.870;   95.486; -434.221; -202.601
448.158;  233.015; -104.230;  129.415
448.446;  134.005; -800.219; -338.604
448.733;  144.037;   13.776;  269.403
449.021;  176.881;   60.788;  341.382
449.309;  157.899; -296.210;  208.379
449.596;  216.627;  128.783;   59.392
449.884;  192.478; -571.222; -325.600
450.172;  267.223; -756.227; -406.590
450.459;  633.233;  645.786;  780.387
450.747; 3762.350; -411.218; -147.608
451.034;12108.768;  493.772;  889.411
451.322; 9793.936; -413.214; -170.614
451.609;  757.039;  292.777;  508.403
451.897;  866.099; -550.203; -183.634
452.184; 2686.195; -622.223; -400.598
452.472; 2353.150;   97.792;  269.375
452.759;  335.956;  512.781;  864.395
453.047;   73.953; -407.212; -125.617
453.334;   35.615; -732.219; -216.606
453.621;   18.939; -438.214; -161.615
453.909;  104.065;   13.796;  384.368
454.196;   94.194; -299.199; -123.641
454.483;  221.715;  317.798;  540.364
454.771;  131.978; -215.208;  196.374
455.058;   51.832; -316.207;  102.374
455.345;  128.235;   71.807;  344.347
455.632;  131.961; -128.207;  235.373
455.919;   57.296;  -82.196;  182.354
456.207;  -44.551; -774.198; -450.642
456.494;  -17.371; -475.200;  -66.639
456.781;   17.935; -399.202; -198.635
457.068;   60.344; -253.206;  -29.628
457.355;    2.620; -698.206; -401.629
457.642;    2.127; -552.205; -290.630
457.929;   17.649; -778.194; -417.651
458.216;  114.579; -575.212; -354.617
458.503;  383.855; -173.193;  -19.652
458.790;  417.751; -864.208; -630.625
459.077;  376.691;  -77.202;  110.364
459.364; 1178.041; -350.195; -210.649
459.651; 2503.991;  -46.206;  220.372
459.938; 1107.164; -864.209; -665.623
460.225;  123.144;  132.799;  276.363
460.512;  -48.408; -836.197; -688.645
460.799;  121.099;  -32.218;  320.392
461.086;  102.735; -370.200; -251.640
461.372;    9.625; -509.198; -279.642
461.659;   57.697; -165.196;  108.354
461.946;   29.578; -445.193;  -54.651
462.233;  216.132;  842.800;  888.361
462.519;  490.203; -814.201; -464.639
462.806; 1505.818; -768.197; -497.645
463.093; 1274.878; -445.191;  -66.656
463.380;   -2.048; -920.186; -824.664
463.666;   54.120; -259.197;  -18.646
463.953;  113.759; -406.195; -243.648
464.239;  288.109; -173.195;  -77.648
464.526;  411.772;  413.806;  743.350
464.813;  329.291; -565.190; -304.658
465.099;  336.954;  606.807;  607.348
465.386;  262.009;  903.807;  921.348
465.672;   -4.932; -694.197; -522.645
465.959;   25.188; -598.188; -520.662
466.245;   -5.591; -468.193; -359.652
466.532;   55.057; -109.195;   63.352
466.818;   16.526; -357.186; -216.664
467.104;  -23.801; -488.182; -415.672
467.391;  -23.681; -628.189; -459.658
467.677;   31.881; -289.186;    9.335
467.964;  -18.624; -682.189; -471.660
468.250;   53.909; -331.186; -160.665
468.536;   59.820;   90.811;  180.341
468.822;  -15.802; -821.184; -574.668
469.109;  125.045;  351.827;  471.311
469.395;  195.970;  729.808;  787.346
469.681;  218.699;   46.811;  156.341
469.967; 1798.604; -699.188; -382.660
470.254; 3962.889; -494.188; -306.662
470.540; 2483.571; -601.196; -476.646
470.826;  360.863; -488.181; -397.675
471.112;  423.477;  288.816;  113.331
471.398;   94.533; -253.183;  -58.670
471.684;   40.696; -626.177; -447.680
471.970;   24.192; -918.180; -981.675
472.256;   53.694; -521.192; -441.654
472.542;   11.233; -499.171; -434.691
472.828;   15.644; -743.182; -607.672
473.114;   36.110; -380.166; -283.700
473.400;   16.666; -504.175; -293.684
473.686;   37.393; -452.166; -400.701
473.972;   51.558; -230.174; -131.687
474.258;   -6.579; -925.173; -843.689
474.544;  328.461; -183.178;   -2.679
474.830;  512.768;  -65.175;   45.316
475.116;  828.518; -123.190; -196.658
475.401; 1116.295; -558.180; -467.676
475.687;  276.369; -725.180; -718.676
475.973;   -8.221; -673.181; -770.673
476.259;  219.571;  736.825;  764.315
476.544;  529.356; -539.176; -437.682
476.830; 1385.129; -398.172; -322.690
477.116; 1235.804; -430.177; -336.682
477.401;  161.944;  346.820;  358.324
477.687;  -10.184; -289.175; -405.684
477.973;   50.883;   21.819;   28.326
478.258;  -11.358; -448.163; -348.706
478.544;   30.240;   21.815;   61.334
478.829;  -66.585; -818.171; -738.692
479.115;  -33.547; -749.172; -651.690
479.401;  -18.497; -444.174; -449.686
479.686;   58.268; -253.180;  -74.676
479.972;    0.342; -886.178; -776.680
480.257;   57.312; -258.166;  -65.700
480.542;   18.670; -614.170; -469.693
480.828;  239.539; 1288.824; 1392.317
481.113;  -30.739; -464.176; -426.683
481.399;  -20.129; -236.161; -202.711
481.684;  -41.714; -620.166; -462.700
481.969;   27.012; -158.159;  -73.713
482.255;  -13.568; -439.169; -285.695
482.540;    8.793; -569.178; -441.680
482.825;   30.421; -395.187; -404.663
483.110;  134.761;  -85.169; -105.696
483.396;  378.237; -840.157; -652.718
483.681;  760.333;  543.826;  730.313
483.966;  303.929; -696.160; -700.712
484.251;   -0.018; -404.174; -310.687
484.536;   -3.526; -356.165; -378.703
484.822;   32.786; -205.173; -218.687
485.107;  -16.442; -599.152; -502.726
485.392;  116.556;  662.836;  541.296
485.677;   62.923;  354.832;  163.302
485.962;  103.984;  160.843;  270.283
486.247;   84.527;  -14.162;   -8.707
486.532;   68.363; -178.166; -325.701
486.817;  167.089;  381.839;  431.291
487.102;  144.438; -453.154; -514.722
487.387; 1087.190; -637.156; -652.718
487.672; 1980.062; -154.164;  -38.705
487.957; 1195.547; -394.160; -286.711
488.241;  330.328; -290.150; -314.729
488.526; 1215.884; -280.152; -148.726
488.811; 1991.245; -881.177; -818.680
489.096; 1402.716; -666.154; -702.723
489.381;  708.555;    3.847;  162.275
489.666;  646.170; -428.161; -510.710
489.950;  207.994;  558.846;  627.277
490.235;  -32.178; -480.151; -458.728
490.520;  -39.581; -756.161; -723.710
490.804;  -33.908; -827.156; -736.719
491.089;   13.771; -469.149; -299.732
491.374;   40.761; -132.164;  -75.704
491.658;  -11.290; -817.147; -717.735
491.943;  118.014; -657.152; -609.727
492.227;  208.683; -178.155;  -38.721
492.512;   31.184; -294.157; -341.717
492.797;  -59.961; -713.149; -716.731
493.081;  -50.312; -588.147; -598.735
493.366;  -13.979; -751.161; -635.711
493.650;  220.277;  831.859;  917.254
493.935;   64.734; -648.147; -447.734
494.219;  -21.589; -778.142; -687.743
494.503;  -38.017; -585.150; -487.730
494.788;   49.674;   46.842;   74.285
495.072;  133.379;  184.850;  434.271
495.356;  239.000; -463.148; -343.733
495.641;  528.471; -812.146; -736.736
495.925;  475.898; -976.156; -903.719
496.209;   10.146; -599.149; -451.732
496.494;  -43.763; -763.142; -544.744
496.778;   27.313; -364.154; -360.722
497.062;  -41.328; -819.156; -627.719
497.346;   -0.425; -869.160; -640.711
497.631;  179.704;  580.852;  560.266
497.915;   74.084;  -64.145;  175.261
498.199;   28.012; -341.157; -277.718
498.483;   41.107; -562.152; -508.725
498.767;  233.731;  301.850;  300.271
499.051;  294.868; -126.149; -100.732
499.335;   73.791; -693.149; -739.731
499.619;  -36.653; -381.129; -423.767
499.903;    1.656; -272.155;  -65.721
500.187;   30.921; -588.153; -316.724
500.471;   25.689; -796.152; -595.727
500.755;   84.094;   62.839;  -96.710
501.039;    8.107; -270.155; -357.721
501.323;   54.404;  -21.141;  264.254
501.607;   10.318; -447.163; -503.706
501.891;   -7.536; -607.156; -512.718
502.174;  -39.603; -726.144; -585.741
502.458;   60.993;   89.849;  370.273
502.742;   50.157; -180.138; -191.751
503.026;  190.934; -412.147; -254.734
503.310;  319.510; -437.159; -375.713
503.593;  208.711; -464.147; -325.735
503.877;  137.105; -232.133; -156.760
504.161;  182.274;    2.847;  -50.724
504.444;  193.727; -841.158; -710.716
504.728;  770.909; -487.164; -522.704
505.012; 1106.502; -257.150;  -76.729
505.295;  799.121; -417.161; -212.711
505.579;  822.347; -256.156; -496.719
505.862; 1262.804; -555.145; -333.738
506.146; 1266.363; -681.159; -758.714
506.429;  584.139;  568.841;  461.286
506.713;  125.573; -732.151; -667.728
506.996;  475.712;   90.846;  295.278
507.280;  546.204; -633.165; -474.703
507.563;  385.454; -469.155; -261.721
507.847;  175.922; -423.153; -112.724
508.130;  189.722; -665.161; -456.711
508.413;  222.607; -758.167; -577.700
508.697;  413.332; -151.167;   12.300
508.980;  260.924; -422.153; -312.724
509.263;   33.225; -466.155; -450.720
509.547;   59.802; -124.150;   82.271
509.830;   46.699; -172.160;  140.289
510.113;  112.272;  128.844;  298.281
510.396;   51.980; -530.152; -300.725
510.680;   41.681; -818.145; -812.738
510.963;  194.042;  184.846;  180.277
511.246;  111.761; -493.150; -357.730
511.529;  300.637; -482.145;  -83.739
511.812;  626.076; -250.134;   10.241
512.095;  487.345; -740.151; -396.728
512.378;  101.216; -317.147; -245.736
512.661;   74.816; -703.137; -623.753
512.944;   87.814; -750.142; -637.744
513.227;   95.788; -170.137; -171.752
513.510;   43.347; -479.144; -671.741
513.793;   45.134; -485.140; -435.747
514.076;  152.197;  -43.127;  -39.771
514.359;  157.897; -294.149; -135.732
514.642;  140.867; -442.142; -567.744
514.925; 1152.657;  581.860;  561.253
515.208; 1664.947; -498.134; -443.758
515.491; 1062.988; -276.133; -182.761
515.773;  579.776; -410.143; -337.742
516.056; 3346.199;  249.864;  409.246
516.339; 4309.554; -754.136; -652.755
516.622; 2019.158; -518.150; -488.730
516.904;  539.860;  882.857;  975.257
517.187;  210.636; -730.138; -523.752
517.470;  430.233; -568.143; -510.743
517.752;  707.357; -624.136; -470.756
518.035;  588.796; -708.139; -725.749
518.318;  643.754; -799.136; -744.755
518.600; 4046.492; -300.132; -325.762
518.883; 5525.767;  310.858;   88.256
519.165; 2554.303; -585.138; -426.751
519.448;  431.717;  -61.132;  -19.762
519.730;  204.656; -573.126; -415.773
520.013;  239.684;  588.867;  664.240
520.295;  285.728;  -94.134;  -15.759
520.578;  616.208; -335.131; -305.764
520.860;  850.942; -254.132;   56.238
521.143;  612.359; -763.135; -584.756
521.425;  601.621; -251.125; -279.775
521.707; 1017.522; -622.127; -380.771
521.990; 2804.998; -199.127;  167.229
522.272; 3247.586; -116.140;   -4.748
522.554; 1194.177; -237.143; -157.742
522.836;  262.026;  -24.134;   99.241
523.119;  178.457; -496.148; -189.734
523.401;  192.316; -448.130; -314.766
523.683;  156.042; -865.137; -693.753
523.965;  427.409;  408.862;  260.248
524.247;  450.371;   54.878;  170.220
524.529;  324.428; -451.134; -367.759
524.812;  491.268;   -3.130;  191.234
525.094; 1395.933; -773.138; -631.751
525.376; 2193.357; -143.124;   78.223
525.658; 1360.825; -441.136; -339.754
525.940;   77.479; -805.131; -671.764
526.222;   29.480; -188.136;  -88.755
526.504;   61.276; -190.131;   32.237
526.786;   13.531; -960.133; -647.760
527.068;  103.639; -124.123;  -67.778
527.349;    9.296; -865.137; -774.754
527.631;  108.292; -137.132;   22.238
527.913;  242.571; -664.127; -450.771
528.195;  321.563; -761.125; -639.774
528.477;  404.297;  -93.134;  -30.758
528.759;  280.243; -648.130; -522.766
529.040;  154.537; -569.123; -293.778
529.322;   76.666; -235.125;  -10.774
529.604;   80.370;  -47.130;   93.233
529.886;   44.206; -546.126; -302.773
530.167;   78.311;  232.870;  192.235
530.449;   40.965;    1.853;   63.265
530.731;   82.895; -572.122; -459.779
531.012;  146.545; -513.120; -216.784
531.294;  135.042; -118.116;  -43.792
531.575;  187.096;  290.875;  538.225
531.857;  130.741; -548.135; -266.757
532.138;  116.227; -113.141;   40.254
532.420;  118.461;  294.865;  403.244
532.701;   84.584; -722.133; -751.760
532.983;  198.312;  232.867;  182.239
533.264;   43.628; -243.126;  175.228
533.546;  -42.721; -491.136; -508.755
533.827;   17.180;  173.867;   -1.759
534.109;    4.491; -352.135;  -80.757
534.390;   85.347; -725.132; -582.762
534.671;  303.786; -270.135;  -82.756
534.953;  203.640; -751.123; -611.779
535.234;   59.099; -426.117; -255.789
535.515;  -48.595; -891.119; -735.785
535.796;    5.917; -431.128; -193.770
536.078; -103.068;-1050.124; -904.777
536.359;    9.841;  -22.123;    3.221
536.640;  -12.760; -480.125; -197.774
536.921;  164.277;  225.871;  143.232
537.202;  542.154;  -87.138;  -16.751
537.483;  693.207;  251.869;  377.236
537.764;  259.786;   17.870;   98.235
538.045;  -31.129; -543.134; -371.758
538.326;  -12.371; -596.129; -447.768
538.607;   75.124; -686.127; -476.771
538.888;  267.934;   98.879;    5.218
