
Integration time [ms]: 100.000
Averaging Nr. [scans]: 40
Smoothing Nr. [pixels]: 0
Data measured with spectrometer [name]: 2101013U2
Wave   ;Sample   ;Dark     ;Reference
[nm]   ;[counts] ;[counts] ;[counts] 

394.013;   62.149; -450.257; -315.536
394.305;  205.722; -461.258; -419.536
394.596; 1081.768; -676.269; -527.514
394.887; 2664.510; -796.268; -654.518
395.178; 1043.941;  145.736;   11.476
395.470;   85.927; -210.263; -356.526
395.761;  221.100;  305.734;  394.479
396.052;  317.317; -545.284; -306.489
396.343;  328.012; -557.276; -454.503
396.634;  137.456; -200.279; -290.497
396.926;  149.057; -618.268; -565.517
397.217;  124.542;   11.725;  -17.504
397.508;   53.208; -366.273; -154.507
397.799;   67.506; -555.279; -571.497
398.090;   18.375; -973.280; -902.495
398.381;  145.891;   11.708;  -11.473
398.672;    1.942; -585.292; -742.473
398.963;   59.312; -348.279; -373.498
399.254;  119.176;   54.709; -209.475
399.545;  -19.503;-1017.266; -883.520
399.836;   90.051; -407.277; -343.501
400.127;   64.817; -205.295; -209.468
400.418;   78.927; -423.274; -392.506
400.709;   61.087; -359.281; -333.493
401.000;   65.105; -268.291; -309.476
401.290;  109.453;  225.698;  115.545
401.581;   81.849; -166.286; -228.485
401.872;   26.789; -542.298; -486.462
402.163;   65.510; -313.296; -252.467
402.454;  103.752; -123.291; -163.475
402.744;  102.326; -844.297; -813.465
403.035;  465.257; -226.293;  -86.471
403.326;  670.970; -366.292; -384.474
403.617;  414.708;  204.701;  165.539
403.907;  275.498; -593.283; -679.490
404.198; 2357.307; -545.307; -599.446
404.489; 6204.878; -618.283; -588.491
404.779; 2157.257; -618.302; -660.456
405.070;  238.910;  -67.304; -174.451
405.360;  339.159; -259.293; -238.472
405.651;  396.518;  125.699;   98.542
405.942;  213.470;  209.714;  127.516
406.232;  326.609; -432.285; -413.487
406.523;  558.752;  641.706;  758.530
406.813;  123.072; -579.286; -644.484
407.104;  402.215;  261.708;  144.527
407.394;  219.460; -604.299; -591.462
407.685;  161.533;  336.715;  222.513
407.975;   80.801; -400.283; -382.490
408.265;  121.867; -134.289; -190.478
408.556;   77.574; -472.291; -459.475
408.846;  170.778;  474.706;  429.530
409.137;  101.175;   -1.288; -216.480
409.427;   58.384; -193.285; -271.487
409.717;   50.461; -776.273; -692.508
410.007;  166.653;    4.715; -170.486
410.298;   99.595; -360.295; -342.469
410.588;   66.931; -495.285; -510.486
410.878;   36.386; -792.287; -873.482
411.168;  128.216; -481.298; -478.463
411.459;  136.471; -295.283; -242.489
411.749;   63.773; -609.292; -507.474
412.039;   69.748; -755.289; -386.480
412.329;  222.219;   40.722;  132.501
412.619;  219.247;  -62.286; -148.485
412.909;  395.145;  639.711;  594.521
413.199;  365.925; -130.280; -251.495
413.490;  427.535;  521.710;  352.523
413.780;  143.579;-1013.279; -913.496
414.070;  335.488;  -46.276;  235.497
414.360;  398.840; -729.278; -666.498
414.650;  425.857; -726.288; -688.482
414.940;  547.429; -538.280; -441.496
415.230;  954.904;   50.712;   74.519
415.520; 6057.567;  155.730;   66.486
415.809;23744.237; -305.281; -125.493
416.099;18499.054; -388.277; -229.501
416.389; 5091.800;  435.726;  236.494
416.679; 3015.581;   91.738;   85.473
416.969;  517.666; -527.287; -503.483
417.259;  621.731;  341.721;  171.503
417.549;  708.835;  522.718;  318.508
417.838; 1649.060; -205.268; -147.518
418.128; 5381.940;  650.710;  492.522
418.418; 4535.243; -491.272; -579.509
418.708; 3057.300;    9.726;  -48.506
418.997;11381.396; -474.275; -480.505
419.287;11865.807; -733.273; -790.507
419.577;11135.670; -160.283; -123.489
419.866;36843.952; -588.277; -498.501
420.156;38226.313; -242.270;  -55.513
420.446; 7021.773; -112.263;  -26.526
420.735;  938.257; -376.271; -446.512
421.025;  885.964; 1830.722;  315.502
421.314;  748.880; -203.271; -226.512
421.604; 1651.302;   89.732;  233.484
421.893;  968.802; -705.271; -602.511
422.183;  234.723; -487.263; -461.526
422.472;  409.753;  -36.271; -107.511
422.762;  489.053; -416.266; -379.521
423.051;  268.339; -916.276; -916.503
423.341;  325.009; -491.273; -439.507
423.630;  437.734; -121.265;   15.477
423.919;  411.920;   58.725;   49.495
424.209;  404.754;  -31.263;   56.473
424.498;  517.207;   68.732;  161.483
424.787; 1086.413; -535.267; -601.518
425.077; 3401.632;   34.735;   29.478
425.366; 4980.360; -734.262; -744.528
425.655; 9856.935;  639.727;  259.493
425.945;20674.315; -313.247; -268.554
426.234;11622.708;  117.741;  300.467
426.523; 5032.388;  -86.259; -350.534
426.812; 6933.698;  107.734;  159.480
427.101;10067.324; -127.269; -323.515
427.390;12910.417;  -55.270;  -86.514
427.680; 3175.758; -624.257; -411.538
427.969;  513.894; -330.255; -301.540
428.258;  344.299; -385.257; -477.536
428.547;  583.047;  449.728;  397.490
428.836; 1418.685; -421.253; -398.543
429.125; 2046.690; -199.259;  -72.534
429.414;  875.108; -330.251; -294.548
429.703; 3085.833; -231.251; -213.548
429.992; 9199.911; -938.250; -828.549
430.281; 6037.566; -397.264; -331.524
430.570;  622.723;  -21.252;   32.454
430.859;  621.837;  279.741;  352.466
431.148;  478.036;  636.752;  631.446
431.437;  297.198;  391.748;  367.454
431.725;  172.176; -544.257; -481.536
432.014;  128.917; -845.253; -756.545
432.303;  408.662; -149.239; -105.569
432.592;  664.123; -460.263; -178.525
432.881; 1070.737; -601.248; -437.554
433.169; 5998.619; -343.255;  -61.540
433.458;12232.521;  445.765;  540.424
433.747; 5251.040; -397.261; -289.529
434.036;  958.138; -275.242; -280.564
434.324; 2091.874; -395.249; -379.551
434.613; 3609.031;   40.757;  159.437
434.902; 1247.927;  333.760;  439.433
435.190;  669.211;   75.761;  295.431
435.479;  381.813;  -52.245;   83.441
435.767;  117.721; -411.244; -427.561
436.056;  239.258; -340.242; -294.563
436.345;  384.079; -372.240; -223.568
436.633;  401.444;   60.750;  383.450
436.922;  289.832;  208.760;  414.432
437.210;  705.286; -194.236;    1.426
437.499; 2347.794; -583.235; -432.576
437.787; 2588.060; -339.236;  -10.574
438.075;  647.516;   56.761;  162.430
438.364;  854.944;  -44.238;  250.429
438.652;  529.249; -286.226; -138.592
438.941;  138.038;    3.770;  269.415
439.229;   29.695; -665.252; -466.545
439.517;   49.602; -160.234;  -85.577
439.806;    6.865; -501.225; -290.595
440.094;  187.135;  377.766;  650.421
440.382;  235.739; -653.233; -302.580
440.670;  254.719; -361.235; -285.576
440.959;   37.108; -347.223; -170.599
441.247;   88.225; -151.229; -109.587
441.535;  129.826; -266.235;   31.423
441.823;   45.057; -497.234; -305.578
442.111;  207.554;  173.771;  327.412
442.400;  633.737; -628.245; -335.559
442.688; 1657.460; -111.234; -620.579
442.976; 1222.621; -786.213; -450.617
443.264;  129.322; -324.224; -364.597
443.552;  122.751; -258.226;   51.408
443.840;  181.650;  602.765;  876.423
444.128;  125.013;  265.767;  269.420
444.416;   10.132; -694.228; -312.588
444.704;   37.213; -465.219;  -92.605
444.992;   87.703;   -0.226;  240.407
445.280;   68.589; -517.230;  -94.585
445.568;   56.650; -694.212; -396.618
445.856;  418.397; -174.221;  357.398
446.143;  902.334;  -54.220;   -7.604
446.431;  740.485;  -25.228;  625.411
446.719;  283.857;  489.783;  675.391
447.007;  202.683;  481.769;  705.416
447.295;  197.005;  597.777;  871.402
447.583;   94.647; -464.229;  -34.587
447.870;  167.694; -434.221; -202.601
448.158;  466.338; -104.230;  129.415
448.446;  379.085; -800.219; -338.604
448.733;  184.448;   13.776;  269.403
449.021;  290.375;   60.788;  341.382
449.309;  204.740; -296.210;  208.379
449.596;  228.828;  128.783;   59.392
449.884;  157.287; -571.222; -325.600
450.172;  164.616; -756.227; -406.590
450.459;  429.254;  645.786;  780.387
450.747; 2303.477; -411.218; -147.608
451.034; 7311.936;  493.772;  889.411
451.322; 6108.633; -413.214; -170.614
451.609;  535.575;  292.777;  508.403
451.897;  587.378; -550.203; -183.634
452.184; 1747.455; -622.223; -400.598
452.472; 1693.361;   97.792;  269.375
452.759;  357.111;  512.781;  864.395
453.047;  134.547; -407.212; -125.617
453.334;   91.244; -732.219; -216.606
453.621;   99.035; -438.214; -161.615
453.909;  128.520;   13.796;  384.368
454.196;  119.866; -299.199; -123.641
454.483;  214.491;  317.798;  540.364
454.771;  154.014; -215.208;  196.374
455.058;   42.768; -316.207;  102.374
455.345;  106.871;   71.807;  344.347
455.632;   81.371; -128.207;  235.373
455.919;   54.238;  -82.196;  182.354
456.207;  -55.880; -774.198; -450.642
456.494;   -6.397; -475.200;  -66.639
456.781;    4.787; -399.202; -198.635
457.068;   67.327; -253.206;  -29.628
457.355;    1.429; -698.206; -401.629
457.642;    0.659; -552.205; -290.630
457.929;    3.262; -778.194; -417.651
458.216;   84.397; -575.212; -354.617
458.503;  235.667; -173.193;  -19.652
458.790;  218.562; -864.208; -630.625
459.077;  254.367;  -77.202;  110.364
459.364;  783.230; -350.195; -210.649
459.651; 1665.025;  -46.206;  220.372
459.938;  787.627; -864.209; -665.623
460.225;  172.845;  132.799;  276.363
460.512;  -37.889; -836.197; -688.645
460.799;  114.151;  -32.218;  320.392
461.086;   85.458; -370.200; -251.640
461.372;   43.146; -509.198; -279.642
461.659;  137.965; -165.196;  108.354
461.946;   61.866; -445.193;  -54.651
462.233;  265.256;  842.800;  888.361
462.519;  353.952; -814.201; -464.639
462.806;  996.236; -768.197; -497.645
463.093;  874.736; -445.191;  -66.656
463.380;  -12.422; -920.186; -824.664
463.666;   65.363; -259.197;  -18.646
463.953;   91.625; -406.195; -243.648
464.239;  187.725; -173.195;  -77.648
464.526;  421.411;  413.806;  743.350
464.813;  352.448; -565.190; -304.658
465.099;  381.567;  606.807;  607.348
465.386;  359.196;  903.807;  921.348
465.672;   28.786; -694.197; -522.645
465.959;   27.566; -598.188; -520.662
466.245;   47.971; -468.193; -359.652
466.532;  116.673; -109.195;   63.352
466.818;   96.303; -357.186; -216.664
467.104;    9.568; -488.182; -415.672
467.391;   -8.825; -628.189; -459.658
467.677;   29.181; -289.186;    9.335
467.964;   37.407; -682.189; -471.660
468.250;   69.884; -331.186; -160.665
468.536;  101.301;   90.811;  180.341
468.822;  -37.679; -821.184; -574.668
469.109;  142.225;  351.827;  471.311
469.395;  210.830;  729.808;  787.346
469.681;  209.179;   46.811;  156.341
469.967; 1236.384; -699.188; -382.660
470.254; 2630.467; -494.188; -306.662
470.540; 1702.513; -601.196; -476.646
470.826;  264.129; -488.181; -397.675
471.112;  310.525;  288.816;  113.331
471.398;   79.804; -253.183;  -58.670
471.684;   42.283; -626.177; -447.680
471.970;   -6.292; -918.180; -981.675
472.256;   30.679; -521.192; -441.654
472.542;   29.761; -499.171; -434.691
472.828;   14.089; -743.182; -607.672
473.114;   41.704; -380.166; -283.700
473.400;   26.725; -504.175; -293.684
473.686;   55.286; -452.166; -400.701
473.972;   60.514; -230.174; -131.687
474.258;  -30.125; -925.173; -843.689
474.544;  184.425; -183.178;   -2.679
474.830;  284.551;  -65.175;   45.316
475.116;  459.525; -123.190; -196.658
475.401;  630.436; -558.180; -467.676
475.687;  186.135; -725.180; -718.676
475.973;   18.497; -673.181; -770.673
476.259;  262.328;  736.825;  764.315
476.544;  346.941; -539.176; -437.682
476.830;  782.857; -398.172; -322.690
477.116;  690.265; -430.177; -336.682
477.401;  137.310;  346.820;  358.324
477.687;  -25.075; -289.175; -405.684
477.973;   33.651;   21.819;   28.326
478.258;    0.506; -448.163; -348.706
478.544;   68.089;   21.815;   61.334
478.829;  -46.784; -818.171; -738.692
479.115;  -38.244; -749.172; -651.690
479.401;  -10.290; -444.174; -449.686
479.686;   22.084; -253.180;  -74.676
479.972;  -29.570; -886.178; -776.680
480.257;   27.931; -258.166;  -65.700
480.542;    3.470; -614.170; -469.693
480.828;  239.923; 1288.824; 1392.317
481.113;  -36.554; -464.176; -426.683
481.399;   -0.245; -236.161; -202.711
481.684;  -55.145; -620.166; -462.700
481.969;    9.344; -158.159;  -73.713
482.255;    0.806; -439.169; -285.695
482.540;    3.305; -569.178; -441.680
482.825;   15.423; -395.187; -404.663
483.110;   89.809;  -85.169; -105.696
483.396;  188.716; -840.157; -652.718
483.681;  501.139;  543.826;  730.313
483.966;  150.538; -696.160; -700.712
484.251;    4.213; -404.174; -310.687
484.536;   18.641; -356.165; -378.703
484.822;   13.791; -205.173; -218.687
485.107;  -22.321; -599.152; -502.726
485.392;  119.797;  662.836;  541.296
485.677;   95.444;  354.832;  163.302
485.962;  112.638;  160.843;  270.283
486.247;  103.089;  -14.162;   -8.707
486.532;   28.407; -178.166; -325.701
486.817;  179.975;  381.839;  431.291
487.102;  126.387; -453.154; -514.722
487.387;  640.667; -637.156; -652.718
487.672; 1111.177; -154.164;  -38.705
487.957;  724.232; -394.160; -286.711
488.241;  193.846; -290.150; -314.729
488.526;  702.130; -280.152; -148.726
488.811; 1136.107; -881.177; -818.680
489.096;  883.315; -666.154; -702.723
489.381;  478.627;    3.847;  162.275
489.666;  371.905; -428.161; -510.710
489.950;  179.818;  558.846;  627.277
490.235;  -26.584; -480.151; -458.728
490.520;  -54.146; -756.161; -723.710
490.804;  -54.406; -827.156; -736.719
491.089;    2.387; -469.149; -299.732
491.374;   37.476; -132.164;  -75.704
491.658;   -5.327; -817.147; -717.735
491.943;  199.660; -657.152; -609.727
492.227;  280.608; -178.155;  -38.721
492.512;   54.788; -294.157; -341.717
492.797;  -59.494; -713.149; -716.731
493.081;  -45.524; -588.147; -598.735
493.366;  -35.419; -751.161; -635.711
493.650;  216.680;  831.859;  917.254
493.935;   35.248; -648.147; -447.734
494.219;  -34.258; -778.142; -687.743
494.503;  -47.624; -585.150; -487.730
494.788;   59.154;   46.842;   74.285
495.072;   92.372;  184.850;  434.271
495.356;  182.790; -463.148; -343.733
495.641;  469.383; -812.146; -736.736
495.925;  481.524; -976.156; -903.719
496.209;   39.411; -599.149; -451.732
496.494;  -29.433; -763.142; -544.744
496.778;   14.812; -364.154; -360.722
497.062;  -59.326; -819.156; -627.719
497.346;  -26.241; -869.160; -640.711
497.631;  164.644;  580.852;  560.266
497.915;   72.243;  -64.145;  175.261
498.199;   70.666; -341.157; -277.718
498.483;   40.679; -562.152; -508.725
498.767;  192.623;  301.850;  300.271
499.051;  190.634; -126.149; -100.732
499.335;   38.232; -693.149; -739.731
499.619;  -29.994; -381.129; -423.767
499.903;   34.781; -272.155;  -65.721
500.187;   35.994; -588.153; -316.724
500.471;   30.609; -796.152; -595.727
500.755;  124.829;   62.839;  -96.710
501.039;   27.682; -270.155; -357.721
501.323;  101.131;  -21.141;  264.254
501.607;   53.357; -447.163; -503.706
501.891;   -3.933; -607.156; -512.718
502.174;  -21.670; -726.144; -585.741
502.458;   70.713;   89.849;  370.273
502.742;   37.280; -180.138; -191.751
503.026;  104.747; -412.147; -254.734
503.310;  171.818; -437.159; -375.713
503.593;  114.624; -464.147; -325.735
503.877;  144.946; -232.133; -156.760
504.161;  192.747;    2.847;  -50.724
504.444;  136.282; -841.158; -710.716
504.728;  436.150; -487.164; -522.704
505.012;  700.745; -257.150;  -76.729
505.295;  542.355; -417.161; -212.711
505.579;  528.249; -256.156; -496.719
505.862;  731.590; -555.145; -333.738
506.146;  709.395; -681.159; -758.714
506.429;  394.771;  568.841;  461.286
506.713;   65.317; -732.151; -667.728
506.996;  312.611;   90.846;  295.278
507.280;  339.495; -633.165; -474.703
507.563;  235.880; -469.155; -261.721
507.847;  102.145; -423.153; -112.724
508.130;   81.156; -665.161; -456.711
508.413;  110.101; -758.167; -577.700
508.697;  226.202; -151.167;   12.300
508.980;  149.546; -422.153; -312.724
509.263;   -6.249; -466.155; -450.720
509.547;   36.345; -124.150;   82.271
509.830;   51.183; -172.160;  140.289
510.113;   97.199;  128.844;  298.281
510.396;   38.552; -530.152; -300.725
510.680;  210.066; -818.145; -812.738
510.963;  741.991;  184.846;  180.277
511.246;  663.453; -493.150; -357.730
511.529;  283.496; -482.145;  -83.739
511.812;  374.192; -250.134;   10.241
512.095;  248.989; -740.151; -396.728
512.378;   68.128; -317.147; -245.736
512.661;   39.063; -703.137; -623.753
512.944;   21.769; -750.142; -637.744
513.227;   57.985; -170.137; -171.752
513.510;   28.904; -479.144; -671.741
513.793;   22.936; -485.140; -435.747
514.076;  143.002;  -43.127;  -39.771
514.359;  105.887; -294.149; -135.732
514.642;   87.622; -442.142; -567.744
514.925;  707.509;  581.860;  561.253
515.208;  963.239; -498.134; -443.758
515.491;  620.503; -276.133; -182.761
515.773;  370.283; -410.143; -337.742
516.056; 1990.719;  249.864;  409.246
516.339; 2757.548; -754.136; -652.755
516.622; 2013.925; -518.150; -488.730
516.904; 1469.740;  882.857;  975.257
517.187;  684.734; -730.138; -523.752
517.470;  423.864; -568.143; -510.743
517.752;  406.801; -624.136; -470.756
518.035;  324.646; -708.139; -725.749
518.318;  352.573; -799.136; -744.755
518.600; 2290.281; -300.132; -325.762
518.883; 3188.671;  310.858;   88.256
519.165; 1550.127; -585.138; -426.751
519.448;  394.881;  -61.132;  -19.762
519.730;  221.235; -573.126; -415.773
520.013;  333.849;  588.867;  664.240
520.295;  995.994;  -94.134;  -15.759
520.578; 2169.844; -335.131; -305.764
520.860; 2455.431; -254.132;   56.238
521.143; 1245.703; -763.135; -584.756
521.425;  487.523; -251.125; -279.775
521.707;  675.603; -622.127; -380.771
521.990; 1700.028; -199.127;  167.229
522.272; 1907.087; -116.140;   -4.748
522.554;  944.509; -237.143; -157.742
522.836;  413.042;  -24.134;   99.241
523.119;  268.421; -496.148; -189.734
523.401;  177.776; -448.130; -314.766
523.683;  104.563; -865.137; -693.753
523.965;  260.357;  408.862;  260.248
524.247;  274.144;   54.878;  170.220
524.529;  189.594; -451.134; -367.759
524.812;  367.003;   -3.130;  191.234
525.094;  817.856; -773.138; -631.751
525.376; 1311.832; -143.124;   78.223
525.658;  792.071; -441.136; -339.754
525.940;   32.666; -805.131; -671.764
526.222;   47.349; -188.136;  -88.755
526.504;  133.464; -190.131;   32.237
526.786;  227.547; -960.133; -647.760
527.068;  378.938; -124.123;  -67.778
527.349;  160.692; -865.137; -774.754
527.631;  150.456; -137.132;   22.238
527.913;  132.677; -664.127; -450.771
528.195;  160.291; -761.125; -639.774
528.477;  235.489;  -93.134;  -30.758
528.759;  128.203; -648.130; -522.766
529.040;   56.261; -569.123; -293.778
529.322;   62.044; -235.125;  -10.774
529.604;  161.730;  -47.130;   93.233
529.886;  154.585; -546.126; -302.773
530.167;  142.272;  232.870;  192.235
530.449;   59.502;    1.853;   63.265
530.731;   31.393; -572.122; -459.779
531.012;   64.614; -513.120; -216.784
531.294;   80.904; -118.116;  -43.792
531.575;  143.898;  290.875;  538.225
531.857;   47.459; -548.135; -266.757
532.138;  115.105; -113.141;   40.254
532.420;  200.205;  294.865;  403.244
532.701;  267.224; -722.133; -751.760
532.983;  393.852;  232.867;  182.239
533.264;  144.108; -243.126;  175.228
533.546;  -47.251; -491.136; -508.755
533.827;   63.670;  173.867;   -1.759
534.109;   46.359; -352.135;  -80.757
534.390;  109.135; -725.132; -582.762
534.671;  271.530; -270.135;  -82.756
534.953;  152.664; -751.123; -611.779
535.234;   21.139; -426.117; -255.789
535.515;  -72.077; -891.119; -735.785
535.796;  -21.827; -431.128; -193.770
536.078; -105.793;-1050.124; -904.777
536.359;    3.915;  -22.123;    3.221
536.640;   -3.283; -480.125; -197.774
536.921;  169.810;  225.871;  143.232
537.202;  381.828;  -87.138;  -16.751
537.483;  444.194;  251.869;  377.236
537.764;  172.072;   17.870;   98.235
538.045;  -53.587; -543.134; -371.758
538.326;  -25.763; -596.129; -447.768
538.607;   20.754; -686.127; -476.771
538.888;  176.830;   98.879;    5.218
