
Integration time [ms]: 100.000
Averaging Nr. [scans]: 40
Smoothing Nr. [pixels]: 0
Data measured with spectrometer [name]: 2101013U2
Wave   ;Sample   ;Dark     ;Reference
[nm]   ;[counts] ;[counts] ;[counts] 

394.013;   69.817; -450.257; -315.536
394.305;  254.615; -461.258; -419.536
394.596;  988.616; -676.269; -527.514
394.887; 2255.407; -796.268; -654.518
395.178;  907.812;  145.736;   11.476
395.470;  111.372; -210.263; -356.526
395.761;  258.047;  305.734;  394.479
396.052;  429.572; -545.284; -306.489
396.343;  428.738; -557.276; -454.503
396.634;  163.858; -200.279; -290.497
396.926;  203.830; -618.268; -565.517
397.217;  159.093;   11.725;  -17.504
397.508;   75.033; -366.273; -154.507
397.799;   82.783; -555.279; -571.497
398.090;   29.703; -973.280; -902.495
398.381;  170.600;   11.708;  -11.473
398.672;   25.251; -585.292; -742.473
398.963;   80.089; -348.279; -373.498
399.254;  145.234;   54.709; -209.475
399.545;    0.868;-1017.266; -883.520
399.836;   88.528; -407.277; -343.501
400.127;   61.827; -205.295; -209.468
400.418;   91.853; -423.274; -392.506
400.709;  109.216; -359.281; -333.493
401.000;   83.438; -268.291; -309.476
401.290;  129.091;  225.698;  115.545
401.581;   94.780; -166.286; -228.485
401.872;   39.700; -542.298; -486.462
402.163;   74.270; -313.296; -252.467
402.454;  105.485; -123.291; -163.475
402.744;  126.911; -844.297; -813.465
403.035;  606.116; -226.293;  -86.471
403.326;  778.404; -366.292; -384.474
403.617;  458.995;  204.701;  165.539
403.907;  252.927; -593.283; -679.490
404.198; 2065.772; -545.307; -599.446
404.489; 5507.307; -618.283; -588.491
404.779; 2024.695; -618.302; -660.456
405.070;  254.449;  -67.304; -174.451
405.360;  308.068; -259.293; -238.472
405.651;  362.580;  125.699;   98.542
405.942;  230.600;  209.714;  127.516
406.232;  402.314; -432.285; -413.487
406.523;  651.311;  641.706;  758.530
406.813;  157.128; -579.286; -644.484
407.104;  469.374;  261.708;  144.527
407.394;  294.646; -604.299; -591.462
407.685;  186.689;  336.715;  222.513
407.975;   94.555; -400.283; -382.490
408.265;  131.299; -134.289; -190.478
408.556;   91.107; -472.291; -459.475
408.846;  170.187;  474.706;  429.530
409.137;   97.357;   -1.288; -216.480
409.427;   58.989; -193.285; -271.487
409.717;   63.311; -776.273; -692.508
410.007;  166.758;    4.715; -170.486
410.298;  100.729; -360.295; -342.469
410.588;   93.112; -495.285; -510.486
410.878;   44.293; -792.287; -873.482
411.168;  126.328; -481.298; -478.463
411.459;  145.650; -295.283; -242.489
411.749;   62.856; -609.292; -507.474
412.039;   83.830; -755.289; -386.480
412.329;  220.721;   40.722;  132.501
412.619;  235.303;  -62.286; -148.485
412.909;  400.152;  639.711;  594.521
413.199;  409.803; -130.280; -251.495
413.490;  462.593;  521.710;  352.523
413.780;  137.757;-1013.279; -913.496
414.070;  329.789;  -46.276;  235.497
414.360;  427.142; -729.278; -666.498
414.650;  416.514; -726.288; -688.482
414.940;  500.356; -538.280; -441.496
415.230;  861.811;   50.712;   74.519
415.520; 5489.316;  155.730;   66.486
415.809;21237.115; -305.281; -125.493
416.099;16290.805; -388.277; -229.501
416.389; 4336.525;  435.726;  236.494
416.679; 2525.151;   91.738;   85.473
416.969;  469.247; -527.287; -503.483
417.259;  446.334;  341.721;  171.503
417.549;  663.314;  522.718;  318.508
417.838; 1446.607; -205.268; -147.518
418.128; 4645.423;  650.710;  492.522
418.418; 3858.417; -491.272; -579.509
418.708; 2639.826;    9.726;  -48.506
418.997; 9673.622; -474.275; -480.505
419.287;10013.882; -733.273; -790.507
419.577; 9187.449; -160.283; -123.489
419.866;30962.503; -588.277; -498.501
420.156;32819.187; -242.270;  -55.513
420.446; 6129.743; -112.263;  -26.526
420.735; 1018.056; -376.271; -446.512
421.025;  857.292; 1830.722;  315.502
421.314;  884.354; -203.271; -226.512
421.604; 2125.400;   89.732;  233.484
421.893; 1230.951; -705.271; -602.511
422.183;  256.419; -487.263; -461.526
422.472;  413.552;  -36.271; -107.511
422.762;  477.574; -416.266; -379.521
423.051;  294.590; -916.276; -916.503
423.341;  351.784; -491.273; -439.507
423.630;  468.205; -121.265;   15.477
423.919;  403.971;   58.725;   49.495
424.209;  368.124;  -31.263;   56.473
424.498;  467.829;   68.732;  161.483
424.787; 1009.410; -535.267; -601.518
425.077; 3129.953;   34.735;   29.478
425.366; 5031.454; -734.262; -744.528
425.655; 8735.984;  639.727;  259.493
425.945;16405.953; -313.247; -268.554
426.234; 9268.876;  117.741;  300.467
426.523; 4488.781;  -86.259; -350.534
426.812; 6106.445;  107.734;  159.480
427.101; 8818.021; -127.269; -323.515
427.390;11598.365;  -55.270;  -86.514
427.680; 3341.350; -624.257; -411.538
427.969;  567.035; -330.255; -301.540
428.258;  361.317; -385.257; -477.536
428.547;  607.671;  449.728;  397.490
428.836; 1650.676; -421.253; -398.543
429.125; 2392.308; -199.259;  -72.534
429.414;  969.147; -330.251; -294.548
429.703; 2777.897; -231.251; -213.548
429.992; 8000.251; -938.250; -828.549
430.281; 5236.212; -397.264; -331.524
430.570;  642.913;  -21.252;   32.454
430.859;  718.780;  279.741;  352.466
431.148;  518.924;  636.752;  631.446
431.437;  323.638;  391.748;  367.454
431.725;  181.543; -544.257; -481.536
432.014;  125.858; -845.253; -756.545
432.303;  442.171; -149.239; -105.569
432.592;  751.243; -460.263; -178.525
432.881;  977.175; -601.248; -437.554
433.169; 5091.311; -343.255;  -61.540
433.458;10416.028;  445.765;  540.424
433.747; 4604.835; -397.261; -289.529
434.036; 1076.173; -275.242; -280.564
434.324; 1977.413; -395.249; -379.551
434.613; 3256.842;   40.757;  159.437
434.902; 1247.687;  333.760;  439.433
435.190;  926.945;   75.761;  295.431
435.479;  516.149;  -52.245;   83.441
435.767;  163.832; -411.244; -427.561
436.056;  291.069; -340.242; -294.563
436.345;  391.439; -372.240; -223.568
436.633;  426.133;   60.750;  383.450
436.922;  379.091;  208.760;  414.432
437.210; 1011.169; -194.236;    1.426
437.499; 3331.177; -583.235; -432.576
437.787; 3605.143; -339.236;  -10.574
438.075;  841.875;   56.761;  162.430
438.364; 1111.028;  -44.238;  250.429
438.652;  694.653; -286.226; -138.592
438.941;  204.469;    3.770;  269.415
439.229;   51.435; -665.252; -466.545
439.517;   68.210; -160.234;  -85.577
439.806;   30.943; -501.225; -290.595
440.094;  214.267;  377.766;  650.421
440.382;  309.721; -653.233; -302.580
440.670;  333.076; -361.235; -285.576
440.959;   63.960; -347.223; -170.599
441.247;  104.629; -151.229; -109.587
441.535;  165.308; -266.235;   31.423
441.823;   78.314; -497.234; -305.578
442.111;  230.583;  173.771;  327.412
442.400;  771.099; -628.245; -335.559
442.688; 2232.117; -111.234; -620.579
442.976; 1707.318; -786.213; -450.617
443.264;  186.199; -324.224; -364.597
443.552;  155.404; -258.226;   51.408
443.840;  225.382;  602.765;  876.423
444.128;  128.970;  265.767;  269.420
444.416;   33.936; -694.228; -312.588
444.704;   42.488; -465.219;  -92.605
444.992;  107.357;   -0.226;  240.407
445.280;   89.944; -517.230;  -94.585
445.568;   81.022; -694.212; -396.618
445.856;  489.373; -174.221;  357.398
446.143; 1183.859;  -54.220;   -7.604
446.431;  939.614;  -25.228;  625.411
446.719;  309.206;  489.783;  675.391
447.007;  203.639;  481.769;  705.416
447.295;  210.957;  597.777;  871.402
447.583;  113.702; -464.229;  -34.587
447.870;  193.745; -434.221; -202.601
448.158;  548.068; -104.230;  129.415
448.446;  463.135; -800.219; -338.604
448.733;  197.151;   13.776;  269.403
449.021;  332.146;   60.788;  341.382
449.309;  211.636; -296.210;  208.379
449.596;  244.078;  128.783;   59.392
449.884;  179.963; -571.222; -325.600
450.172;  130.470; -756.227; -406.590
450.459;  378.052;  645.786;  780.387
450.747; 1867.651; -411.218; -147.608
451.034; 6010.316;  493.772;  889.411
451.322; 4939.405; -413.214; -170.614
451.609;  446.552;  292.777;  508.403
451.897;  510.646; -550.203; -183.634
452.184; 1481.007; -622.223; -400.598
452.472; 1452.856;   97.792;  269.375
452.759;  362.486;  512.781;  864.395
453.047;  161.644; -407.212; -125.617
453.334;  121.343; -732.219; -216.606
453.621;  153.783; -438.214; -161.615
453.909;  149.138;   13.796;  384.368
454.196;  146.132; -299.199; -123.641
454.483;  273.083;  317.798;  540.364
454.771;  168.834; -215.208;  196.374
455.058;   46.737; -316.207;  102.374
455.345;  122.134;   71.807;  344.347
455.632;   76.490; -128.207;  235.373
455.919;   53.803;  -82.196;  182.354
456.207;  -48.364; -774.198; -450.642
456.494;    8.670; -475.200;  -66.639
456.781;   24.404; -399.202; -198.635
457.068;   66.997; -253.206;  -29.628
457.355;   16.973; -698.206; -401.629
457.642;   13.203; -552.205; -290.630
457.929;    5.676; -778.194; -417.651
458.216;   70.269; -575.212; -354.617
458.503;  193.555; -173.193;  -19.652
458.790;  195.557; -864.208; -630.625
459.077;  260.084;  -77.202;  110.364
459.364;  678.294; -350.195; -210.649
459.651; 1402.645;  -46.206;  220.372
459.938;  667.023; -864.209; -665.623
460.225;  199.987;  132.799;  276.363
460.512;  -18.899; -836.197; -688.645
460.799;  126.225;  -32.218;  320.392
461.086;  114.474; -370.200; -251.640
461.372;   95.111; -509.198; -279.642
461.659;  164.654; -165.196;  108.354
461.946;   92.429; -445.193;  -54.651
462.233;  289.772;  842.800;  888.361
462.519;  319.619; -814.201; -464.639
462.806;  894.701; -768.197; -497.645
463.093;  766.299; -445.191;  -66.656
463.380;  -17.662; -920.186; -824.664
463.666;   60.003; -259.197;  -18.646
463.953;  103.164; -406.195; -243.648
464.239;  168.889; -173.195;  -77.648
464.526;  444.949;  413.806;  743.350
464.813;  423.060; -565.190; -304.658
465.099;  419.355;  606.807;  607.348
465.386;  420.759;  903.807;  921.348
465.672;  102.226; -694.197; -522.645
465.959;   58.102; -598.188; -520.662
466.245;   51.109; -468.193; -359.652
466.532;  133.162; -109.195;   63.352
466.818;  113.088; -357.186; -216.664
467.104;   24.051; -488.182; -415.672
467.391;   -2.288; -628.189; -459.658
467.677;   48.366; -289.186;    9.335
467.964;   35.693; -682.189; -471.660
468.250;   77.144; -331.186; -160.665
468.536;  105.913;   90.811;  180.341
468.822;  -15.195; -821.184; -574.668
469.109;  162.128;  351.827;  471.311
469.395;  200.693;  729.808;  787.346
469.681;  200.491;   46.811;  156.341
469.967; 1064.170; -699.188; -382.660
470.254; 2239.803; -494.188; -306.662
470.540; 1435.378; -601.196; -476.646
470.826;  220.337; -488.181; -397.675
471.112;  266.409;  288.816;  113.331
471.398;  101.888; -253.183;  -58.670
471.684;   38.664; -626.177; -447.680
471.970;   17.940; -918.180; -981.675
472.256;   29.242; -521.192; -441.654
472.542;   50.389; -499.171; -434.691
472.828;   43.147; -743.182; -607.672
473.114;   65.055; -380.166; -283.700
473.400;   36.330; -504.175; -293.684
473.686;   66.586; -452.166; -400.701
473.972;   68.769; -230.174; -131.687
474.258;  -30.272; -925.173; -843.689
474.544;  140.506; -183.178;   -2.679
474.830;  248.131;  -65.175;   45.316
475.116;  347.186; -123.190; -196.658
475.401;  498.693; -558.180; -467.676
475.687;  174.492; -725.180; -718.676
475.973;   43.030; -673.181; -770.673
476.259;  269.108;  736.825;  764.315
476.544;  340.822; -539.176; -437.682
476.830;  638.410; -398.172; -322.690
477.116;  515.045; -430.177; -336.682
477.401;  140.867;  346.820;  358.324
477.687;   -1.145; -289.175; -405.684
477.973;   37.533;   21.819;   28.326
478.258;   31.306; -448.163; -348.706
478.544;   51.374;   21.815;   61.334
478.829;  -36.381; -818.171; -738.692
479.115;  -35.365; -749.172; -651.690
479.401;   -0.486; -444.174; -449.686
479.686;   34.316; -253.180;  -74.676
479.972;  -17.664; -886.178; -776.680
480.257;   41.932; -258.166;  -65.700
480.542;    5.973; -614.170; -469.693
480.828;  224.353; 1288.824; 1392.317
481.113;  -14.624; -464.176; -426.683
481.399;    0.304; -236.161; -202.711
481.684;  -37.969; -620.166; -462.700
481.969;   25.317; -158.159;  -73.713
482.255;    3.133; -439.169; -285.695
482.540;   10.636; -569.178; -441.680
482.825;    9.408; -395.187; -404.663
483.110;   74.036;  -85.169; -105.696
483.396;  127.962; -840.157; -652.718
483.681;  404.969;  543.826;  730.313
483.966;  116.111; -696.160; -700.712
484.251;   12.268; -404.174; -310.687
484.536;   19.142; -356.165; -378.703
484.822;    7.996; -205.173; -218.687
485.107;   -7.651; -599.152; -502.726
485.392;  119.472;  662.836;  541.296
485.677;   88.721;  354.832;  163.302
485.962;  126.310;  160.843;  270.283
486.247;  108.764;  -14.162;   -8.707
486.532;   37.758; -178.166; -325.701
486.817;  171.898;  381.839;  431.291
487.102;  100.357; -453.154; -514.722
487.387;  519.289; -637.156; -652.718
487.672;  860.027; -154.164;  -38.705
487.957;  554.430; -394.160; -286.711
488.241;  175.540; -290.150; -314.729
488.526;  573.300; -280.152; -148.726
488.811;  882.213; -881.177; -818.680
489.096;  695.260; -666.154; -702.723
489.381;  408.721;    3.847;  162.275
489.666;  271.528; -428.161; -510.710
489.950;  172.013;  558.846;  627.277
490.235;  -11.740; -480.151; -458.728
490.520;  -41.647; -756.161; -723.710
490.804;  -42.584; -827.156; -736.719
491.089;   -0.995; -469.149; -299.732
491.374;   41.201; -132.164;  -75.704
491.658;   -3.809; -817.147; -717.735
491.943;  235.329; -657.152; -609.727
492.227;  294.253; -178.155;  -38.721
492.512;   81.484; -294.157; -341.717
492.797;  -52.776; -713.149; -716.731
493.081;  -23.182; -588.147; -598.735
493.366;  -43.821; -751.161; -635.711
493.650;  208.044;  831.859;  917.254
493.935;   33.765; -648.147; -447.734
494.219;  -50.543; -778.142; -687.743
494.503;  -57.106; -585.150; -487.730
494.788;   36.576;   46.842;   74.285
495.072;  109.766;  184.850;  434.271
495.356;  149.183; -463.148; -343.733
495.641;  463.949; -812.146; -736.736
495.925;  471.996; -976.156; -903.719
496.209;   59.704; -599.149; -451.732
496.494;  -28.643; -763.142; -544.744
496.778;   15.132; -364.154; -360.722
497.062;  -48.855; -819.156; -627.719
497.346;  -38.418; -869.160; -640.711
497.631;  144.911;  580.852;  560.266
497.915;   81.334;  -64.145;  175.261
498.199;   78.712; -341.157; -277.718
498.483;   41.848; -562.152; -508.725
498.767;  162.142;  301.850;  300.271
499.051;  152.877; -126.149; -100.732
499.335;   26.775; -693.149; -739.731
499.619;  -32.110; -381.129; -423.767
499.903;   43.827; -272.155;  -65.721
500.187;   25.914; -588.153; -316.724
500.471;   38.628; -796.152; -595.727
500.755;  121.728;   62.839;  -96.710
501.039;   55.228; -270.155; -357.721
501.323;   99.446;  -21.141;  264.254
501.607;   77.831; -447.163; -503.706
501.891;    6.464; -607.156; -512.718
502.174;    2.095; -726.144; -585.741
502.458;   85.957;   89.849;  370.273
502.742;   33.943; -180.138; -191.751
503.026;   76.339; -412.147; -254.734
503.310;  120.990; -437.159; -375.713
503.593;  101.691; -464.147; -325.735
503.877;  130.932; -232.133; -156.760
504.161;  204.817;    2.847;  -50.724
504.444;  131.104; -841.158; -710.716
504.728;  339.000; -487.164; -522.704
505.012;  580.714; -257.150;  -76.729
505.295;  441.204; -417.161; -212.711
505.579;  428.120; -256.156; -496.719
505.862;  553.206; -555.145; -333.738
506.146;  550.893; -681.159; -758.714
506.429;  337.143;  568.841;  461.286
506.713;   55.586; -732.151; -667.728
506.996;  266.657;   90.846;  295.278
507.280;  267.870; -633.165; -474.703
507.563;  192.126; -469.155; -261.721
507.847;   82.665; -423.153; -112.724
508.130;   46.504; -665.161; -456.711
508.413;   73.203; -758.167; -577.700
508.697;  193.328; -151.167;   12.300
508.980;  110.716; -422.153; -312.724
509.263;   -3.378; -466.155; -450.720
509.547;   46.164; -124.150;   82.271
509.830;   34.882; -172.160;  140.289
510.113;   98.245;  128.844;  298.281
510.396;   35.297; -530.152; -300.725
510.680;  304.807; -818.145; -812.738
510.963; 1029.336;  184.846;  180.277
511.246;  961.196; -493.150; -357.730
511.529;  305.212; -482.145;  -83.739
511.812;  284.754; -250.134;   10.241
512.095;  166.333; -740.151; -396.728
512.378;   70.820; -317.147; -245.736
512.661;    9.401; -703.137; -623.753
512.944;   16.459; -750.142; -637.744
513.227;   56.123; -170.137; -171.752
513.510;   45.095; -479.144; -671.741
513.793;   30.400; -485.140; -435.747
514.076;  142.810;  -43.127;  -39.771
514.359;   91.455; -294.149; -135.732
514.642;   68.761; -442.142; -567.744
514.925;  570.448;  581.860;  561.253
515.208;  734.500; -498.134; -443.758
515.491;  495.213; -276.133; -182.761
515.773;  274.724; -410.143; -337.742
516.056; 1560.732;  249.864;  409.246
516.339; 2282.710; -754.136; -652.755
516.622; 2089.844; -518.150; -488.730
516.904; 1847.530;  882.857;  975.257
517.187;  854.972; -730.138; -523.752
517.470;  419.004; -568.143; -510.743
517.752;  338.713; -624.136; -470.756
518.035;  250.010; -708.139; -725.749
518.318;  261.861; -799.136; -744.755
518.600; 1748.542; -300.132; -325.762
518.883; 2463.836;  310.858;   88.256
519.165; 1196.565; -585.138; -426.751
519.448;  411.466;  -61.132;  -19.762
519.730;  238.318; -573.126; -415.773
520.013;  357.710;  588.867;  664.240
520.295; 1239.155;  -94.134;  -15.759
520.578; 2822.704; -335.131; -305.764
520.860; 3147.592; -254.132;   56.238
521.143; 1540.365; -763.135; -584.756
521.425;  472.705; -251.125; -279.775
521.707;  571.511; -622.127; -380.771
521.990; 1375.511; -199.127;  167.229
522.272; 1530.026; -116.140;   -4.748
522.554;  851.599; -237.143; -157.742
522.836;  484.753;  -24.134;   99.241
523.119;  282.238; -496.148; -189.734
523.401;  163.885; -448.130; -314.766
523.683;   72.076; -865.137; -693.753
523.965;  212.120;  408.862;  260.248
524.247;  218.950;   54.878;  170.220
524.529;  156.780; -451.134; -367.759
524.812;  305.287;   -3.130;  191.234
525.094;  640.194; -773.138; -631.751
525.376; 1036.363; -143.124;   78.223
525.658;  613.183; -441.136; -339.754
525.940;   11.626; -805.131; -671.764
526.222;   60.861; -188.136;  -88.755
526.504;  171.424; -190.131;   32.237
526.786;  306.957; -960.133; -647.760
527.068;  444.869; -124.123;  -67.778
527.349;  224.080; -865.137; -774.754
527.631;  151.466; -137.132;   22.238
527.913;   87.560; -664.127; -450.771
528.195;  110.548; -761.125; -639.774
528.477;  185.125;  -93.134;  -30.758
528.759;   87.812; -648.130; -522.766
529.040;   26.268; -569.123; -293.778
529.322;   56.601; -235.125;  -10.774
529.604;  177.739;  -47.130;   93.233
529.886;  186.067; -546.126; -302.773
530.167;  166.556;  232.870;  192.235
530.449;   36.944;    1.853;   63.265
530.731;   -3.951; -572.122; -459.779
531.012;   40.619; -513.120; -216.784
531.294;   40.506; -118.116;  -43.792
531.575;  126.380;  290.875;  538.225
531.857;   31.920; -548.135; -266.757
532.138;   83.019; -113.141;   40.254
532.420;  206.817;  294.865;  403.244
532.701;  312.710; -722.133; -751.760
532.983;  448.488;  232.867;  182.239
533.264;  179.965; -243.126;  175.228
533.546;  -36.239; -491.136; -508.755
533.827;   81.006;  173.867;   -1.759
534.109;   83.945; -352.135;  -80.757
534.390;  138.245; -725.132; -582.762
534.671;  252.692; -270.135;  -82.756
534.953;  152.970; -751.123; -611.779
535.234;    3.467; -426.117; -255.789
535.515;  -79.873; -891.119; -735.785
535.796;  -25.294; -431.128; -193.770
536.078; -103.037;-1050.124; -904.777
536.359;    9.771;  -22.123;    3.221
536.640;   -0.925; -480.125; -197.774
536.921;  154.619;  225.871;  143.232
537.202;  311.991;  -87.138;  -16.751
537.483;  360.853;  251.869;  377.236
537.764;  137.781;   17.870;   98.235
538.045;  -44.051; -543.134; -371.758
538.326;  -20.529; -596.129; -447.768
538.607;    9.362; -686.127; -476.771
538.888;  151.036;   98.879;    5.218
