
Integration time [ms]: 100.000
Averaging Nr. [scans]: 40
Smoothing Nr. [pixels]: 0
Data measured with spectrometer [name]: 2101013U2
Wave   ;Sample   ;Dark     ;Reference
[nm]   ;[counts] ;[counts] ;[counts] 

394.013;   56.950; -450.257; -315.536
394.305;  177.573; -461.258; -419.536
394.596; 1604.521; -676.269; -527.514
394.887; 4259.667; -796.268; -654.518
395.178; 1526.554;  145.736;   11.476
395.470;   85.568; -210.263; -356.526
395.761;  152.635;  305.734;  394.479
396.052;  104.892; -545.284; -306.489
396.343;   70.078; -557.276; -454.503
396.634;   45.264; -200.279; -290.497
396.926;   25.213; -618.268; -565.517
397.217;   74.783;   11.725;  -17.504
397.508;   28.678; -366.273; -154.507
397.799;   29.264; -555.279; -571.497
398.090;   -4.693; -973.280; -902.495
398.381;   76.625;   11.708;  -11.473
398.672;  -24.474; -585.292; -742.473
398.963;   31.772; -348.279; -373.498
399.254;   70.487;   54.709; -209.475
399.545;  -26.044;-1017.266; -883.520
399.836;   42.564; -407.277; -343.501
400.127;   40.295; -205.295; -209.468
400.418;   36.396; -423.274; -392.506
400.709;   27.892; -359.281; -333.493
401.000;   47.367; -268.291; -309.476
401.290;  117.617;  225.698;  115.545
401.581;   74.021; -166.286; -228.485
401.872;   42.761; -542.298; -486.462
402.163;   58.811; -313.296; -252.467
402.454;   93.263; -123.291; -163.475
402.744;   53.950; -844.297; -813.465
403.035;  230.164; -226.293;  -86.471
403.326;  305.455; -366.292; -384.474
403.617;  318.179;  204.701;  165.539
403.907;  360.099; -593.283; -679.490
404.198; 3630.061; -545.307; -599.446
404.489; 9250.930; -618.283; -588.491
404.779; 2603.147; -618.302; -660.456
405.070;  290.420;  -67.304; -174.451
405.360;  488.141; -259.293; -238.472
405.651;  491.610;  125.699;   98.542
405.942;  157.815;  209.714;  127.516
406.232;   92.008; -432.285; -413.487
406.523;  229.832;  641.706;  758.530
406.813;   55.193; -579.286; -644.484
407.104;  203.923;  261.708;  144.527
407.394;   84.156; -604.299; -591.462
407.685;  151.657;  336.715;  222.513
407.975;   60.278; -400.283; -382.490
408.265;  122.556; -134.289; -190.478
408.556;   67.784; -472.291; -459.475
408.846;  180.484;  474.706;  429.530
409.137;  114.316;   -1.288; -216.480
409.427;   87.507; -193.285; -271.487
409.717;   62.007; -776.273; -692.508
410.007;  150.024;    4.715; -170.486
410.298;  116.149; -360.295; -342.469
410.588;  114.604; -495.285; -510.486
410.878;   59.930; -792.287; -873.482
411.168;  125.489; -481.298; -478.463
411.459;  142.322; -295.283; -242.489
411.749;   99.182; -609.292; -507.474
412.039;   85.439; -755.289; -386.480
412.329;  241.506;   40.722;  132.501
412.619;  225.843;  -62.286; -148.485
412.909;  376.934;  639.711;  594.521
413.199;  328.208; -130.280; -251.495
413.490;  402.523;  521.710;  352.523
413.780;  211.713;-1013.279; -913.496
414.070;  421.079;  -46.276;  235.497
414.360;  410.051; -729.278; -666.498
414.650;  575.150; -726.288; -688.482
414.940;  776.537; -538.280; -441.496
415.230; 1233.921;   50.712;   74.519
415.520; 8635.595;  155.730;   66.486
415.809;34862.616; -305.281; -125.493
416.099;26243.017; -388.277; -229.501
416.389; 7846.818;  435.726;  236.494
416.679; 4540.522;   91.738;   85.473
416.969;  792.835; -527.287; -503.483
417.259;  663.465;  341.721;  171.503
417.549;  905.740;  522.718;  318.508
417.838; 2441.766; -205.268; -147.518
418.128; 8439.679;  650.710;  492.522
418.418; 6879.715; -491.272; -579.509
418.708; 4577.719;    9.726;  -48.506
418.997;18007.638; -474.275; -480.505
419.287;18347.502; -733.273; -790.507
419.577;17937.871; -160.283; -123.489
419.866;57552.090; -588.277; -498.501
420.156;55741.365; -242.270;  -55.513
420.446; 9269.488; -112.263;  -26.526
420.735;  901.883; -376.271; -446.512
421.025;  919.225; 1830.722;  315.502
421.314;  572.030; -203.271; -226.512
421.604;  695.482;   89.732;  233.484
421.893;  434.376; -705.271; -602.511
422.183;  298.663; -487.263; -461.526
422.472;  399.353;  -36.271; -107.511
422.762;  436.763; -416.266; -379.521
423.051;  275.280; -916.276; -916.503
423.341;  335.779; -491.273; -439.507
423.630;  406.345; -121.265;   15.477
423.919;  448.413;   58.725;   49.495
424.209;  480.345;  -31.263;   56.473
424.498;  654.838;   68.732;  161.483
424.787; 1508.696; -535.267; -601.518
425.077; 4373.318;   34.735;   29.478
425.366; 4740.627; -734.262; -744.528
425.655;13675.005;  639.727;  259.493
425.945;35389.286; -313.247; -268.554
426.234;18573.130;  117.741;  300.467
426.523; 7421.136;  -86.259; -350.534
426.812; 9981.533;  107.734;  159.480
427.101;15174.577; -127.269; -323.515
427.390;17666.245;  -55.270;  -86.514
427.680; 2498.810; -624.257; -411.538
427.969;  513.474; -330.255; -301.540
428.258;  384.750; -385.257; -477.536
428.547;  522.670;  449.728;  397.490
428.836;  735.869; -421.253; -398.543
429.125;  997.788; -199.259;  -72.534
429.414;  812.447; -330.251; -294.548
429.703; 4612.647; -231.251; -213.548
429.992;14275.176; -938.250; -828.549
430.281; 9013.279; -397.264; -331.524
430.570;  628.785;  -21.252;   32.454
430.859;  456.636;  279.741;  352.466
431.148;  434.931;  636.752;  631.446
431.437;  326.284;  391.748;  367.454
431.725;  220.502; -544.257; -481.536
432.014;  219.203; -845.253; -756.545
432.303;  438.548; -149.239; -105.569
432.592;  601.688; -460.263; -178.525
432.881; 1434.907; -601.248; -437.554
433.169; 9758.250; -343.255;  -61.540
433.458;19634.315;  445.765;  540.424
433.747; 7695.509; -397.261; -289.529
434.036;  948.469; -275.242; -280.564
434.324; 2966.966; -395.249; -379.551
434.613; 5368.061;   40.757;  159.437
434.902; 1515.436;  333.760;  439.433
435.190;  300.847;   75.761;  295.431
435.479;  183.814;  -52.245;   83.441
435.767;  108.123; -411.244; -427.561
436.056;  229.739; -340.242; -294.563
436.345;  506.814; -372.240; -223.568
436.633;  476.085;   60.750;  383.450
436.922;  187.317;  208.760;  414.432
437.210;  229.953; -194.236;    1.426
437.499;  478.588; -583.235; -432.576
437.787;  548.052; -339.236;  -10.574
438.075;  192.379;   56.761;  162.430
438.364;  211.657;  -44.238;  250.429
438.652;  121.936; -286.226; -138.592
438.941;   96.067;    3.770;  269.415
439.229;   -3.819; -665.252; -466.545
439.517;   40.248; -160.234;  -85.577
439.806;    2.705; -501.225; -290.595
440.094;  136.632;  377.766;  650.421
440.382;   31.412; -653.233; -302.580
440.670;   51.162; -361.235; -285.576
440.959;   11.502; -347.223; -170.599
441.247;   59.681; -151.229; -109.587
441.535;   46.846; -266.235;   31.423
441.823;   10.304; -497.234; -305.578
442.111;  156.461;  173.771;  327.412
442.400;  305.638; -628.245; -335.559
442.688;  523.932; -111.234; -620.579
442.976;  243.684; -786.213; -450.617
443.264;   52.738; -324.224; -364.597
443.552;   56.712; -258.226;   51.408
443.840;  150.869;  602.765;  876.423
444.128;   99.586;  265.767;  269.420
444.416;  -11.261; -694.228; -312.588
444.704;   24.038; -465.219;  -92.605
444.992;   44.891;   -0.226;  240.407
445.280;   31.167; -517.230;  -94.585
445.568;   -6.561; -694.212; -396.618
445.856;  134.718; -174.221;  357.398
446.143;  245.508;  -54.220;   -7.604
446.431;  231.294;  -25.228;  625.411
446.719;  169.012;  489.783;  675.391
447.007;  154.936;  481.769;  705.416
447.295;  156.098;  597.777;  871.402
447.583;  110.303; -464.229;  -34.587
447.870;  112.740; -434.221; -202.601
448.158;  248.841; -104.230;  129.415
448.446;  142.310; -800.219; -338.604
448.733;  136.140;   13.776;  269.403
449.021;  212.788;   60.788;  341.382
449.309;  185.132; -296.210;  208.379
449.596;  243.882;  128.783;   59.392
449.884;  227.106; -571.222; -325.600
450.172;  293.725; -756.227; -406.590
450.459;  666.539;  645.786;  780.387
450.747; 3854.455; -411.218; -147.608
451.034;12460.095;  493.772;  889.411
451.322; 9947.618; -413.214; -170.614
451.609;  755.292;  292.777;  508.403
451.897;  921.834; -550.203; -183.634
452.184; 2795.073; -622.223; -400.598
452.472; 2426.333;   97.792;  269.375
452.759;  356.410;  512.781;  864.395
453.047;   96.910; -407.212; -125.617
453.334;   55.845; -732.219; -216.606
453.621;   51.945; -438.214; -161.615
453.909;  105.224;   13.796;  384.368
454.196;  120.055; -299.199; -123.641
454.483;  268.950;  317.798;  540.364
454.771;  159.362; -215.208;  196.374
455.058;   56.741; -316.207;  102.374
455.345;  155.823;   71.807;  344.347
455.632;  142.695; -128.207;  235.373
455.919;   73.708;  -82.196;  182.354
456.207;  -29.214; -774.198; -450.642
456.494;   13.415; -475.200;  -66.639
456.781;   47.445; -399.202; -198.635
457.068;   64.228; -253.206;  -29.628
457.355;   -1.996; -698.206; -401.629
457.642;   20.861; -552.205; -290.630
457.929;   41.412; -778.194; -417.651
458.216;  129.036; -575.212; -354.617
458.503;  407.518; -173.193;  -19.652
458.790;  442.584; -864.208; -630.625
459.077;  391.276;  -77.202;  110.364
459.364; 1211.078; -350.195; -210.649
459.651; 2588.700;  -46.206;  220.372
459.938; 1157.272; -864.209; -665.623
460.225;  130.605;  132.799;  276.363
460.512;  -16.121; -836.197; -688.645
460.799;  140.829;  -32.218;  320.392
461.086;  106.220; -370.200; -251.640
461.372;   36.936; -509.198; -279.642
461.659;   72.709; -165.196;  108.354
461.946;   51.941; -445.193;  -54.651
462.233;  219.593;  842.800;  888.361
462.519;  523.364; -814.201; -464.639
462.806; 1512.730; -768.197; -497.645
463.093; 1304.891; -445.191;  -66.656
463.380;   11.167; -920.186; -824.664
463.666;   57.632; -259.197;  -18.646
463.953;  119.147; -406.195; -243.648
464.239;  291.047; -173.195;  -77.648
464.526;  403.210;  413.806;  743.350
464.813;  356.430; -565.190; -304.658
465.099;  347.692;  606.807;  607.348
465.386;  265.597;  903.807;  921.348
465.672;    0.005; -694.197; -522.645
465.959;   59.327; -598.188; -520.662
466.245;   12.197; -468.193; -359.652
466.532;   72.294; -109.195;   63.352
466.818;   40.867; -357.186; -216.664
467.104;    0.491; -488.182; -415.672
467.391;   -9.792; -628.189; -459.658
467.677;   53.821; -289.186;    9.335
467.964;   12.766; -682.189; -471.660
468.250;   52.349; -331.186; -160.665
468.536;   89.834;   90.811;  180.341
468.822;  -14.436; -821.184; -574.668
469.109;  159.265;  351.827;  471.311
469.395;  207.384;  729.808;  787.346
469.681;  254.413;   46.811;  156.341
469.967; 1866.719; -699.188; -382.660
470.254; 4166.678; -494.188; -306.662
470.540; 2546.007; -601.196; -476.646
470.826;  393.705; -488.181; -397.675
471.112;  438.243;  288.816;  113.331
471.398;  106.799; -253.183;  -58.670
471.684;   52.914; -626.177; -447.680
471.970;   37.059; -918.180; -981.675
472.256;   66.208; -521.192; -441.654
472.542;   58.154; -499.171; -434.691
472.828;   52.861; -743.182; -607.672
473.114;   48.182; -380.166; -283.700
473.400;   54.285; -504.175; -293.684
473.686;   47.315; -452.166; -400.701
473.972;   59.678; -230.174; -131.687
474.258;   15.690; -925.173; -843.689
474.544;  340.329; -183.178;   -2.679
474.830;  522.762;  -65.175;   45.316
475.116;  827.757; -123.190; -196.658
475.401; 1127.637; -558.180; -467.676
475.687;  319.936; -725.180; -718.676
475.973;    3.446; -673.181; -770.673
476.259;  248.989;  736.825;  764.315
476.544;  549.099; -539.176; -437.682
476.830; 1391.824; -398.172; -322.690
477.116; 1219.097; -430.177; -336.682
477.401;  178.636;  346.820;  358.324
477.687;  -13.240; -289.175; -405.684
477.973;   55.025;   21.819;   28.326
478.258;    2.515; -448.163; -348.706
478.544;   43.556;   21.815;   61.334
478.829;  -46.865; -818.171; -738.692
479.115;  -31.877; -749.172; -651.690
479.401;    3.622; -444.174; -449.686
479.686;   74.235; -253.180;  -74.676
479.972;   22.610; -886.178; -776.680
480.257;   61.434; -258.166;  -65.700
480.542;   34.540; -614.170; -469.693
480.828;  233.108; 1288.824; 1392.317
481.113;  -18.095; -464.176; -426.683
481.399;    3.019; -236.161; -202.711
481.684;  -28.967; -620.166; -462.700
481.969;   29.411; -158.159;  -73.713
482.255;    0.728; -439.169; -285.695
482.540;   20.986; -569.178; -441.680
482.825;   54.311; -395.187; -404.663
483.110;  152.307;  -85.169; -105.696
483.396;  393.787; -840.157; -652.718
483.681;  745.653;  543.826;  730.313
483.966;  312.753; -696.160; -700.712
484.251;   11.551; -404.174; -310.687
484.536;    5.871; -356.165; -378.703
484.822;   39.980; -205.173; -218.687
485.107;    1.859; -599.152; -502.726
485.392;  137.728;  662.836;  541.296
485.677;   89.344;  354.832;  163.302
485.962;  128.859;  160.843;  270.283
486.247;  104.200;  -14.162;   -8.707
486.532;   73.535; -178.166; -325.701
486.817;  175.312;  381.839;  431.291
487.102;  164.563; -453.154; -514.722
487.387; 1089.789; -637.156; -652.718
487.672; 1988.910; -154.164;  -38.705
487.957; 1208.146; -394.160; -286.711
488.241;  346.954; -290.150; -314.729
488.526; 1208.261; -280.152; -148.726
488.811; 2000.263; -881.177; -818.680
489.096; 1423.991; -666.154; -702.723
489.381;  744.981;    3.847;  162.275
489.666;  653.144; -428.161; -510.710
489.950;  225.495;  558.846;  627.277
490.235;  -23.677; -480.151; -458.728
490.520;  -28.782; -756.161; -723.710
490.804;  -12.908; -827.156; -736.719
491.089;   32.074; -469.149; -299.732
491.374;   42.308; -132.164;  -75.704
491.658;   -3.037; -817.147; -717.735
491.943;  122.366; -657.152; -609.727
492.227;  219.833; -178.155;  -38.721
492.512;   46.408; -294.157; -341.717
492.797;  -29.984; -713.149; -716.731
493.081;  -30.934; -588.147; -598.735
493.366;  -29.106; -751.161; -635.711
493.650;  234.881;  831.859;  917.254
493.935;   86.187; -648.147; -447.734
494.219;   -9.584; -778.142; -687.743
494.503;  -19.965; -585.150; -487.730
494.788;   65.873;   46.842;   74.285
495.072;  132.181;  184.850;  434.271
495.356;  255.578; -463.148; -343.733
495.641;  542.949; -812.146; -736.736
495.925;  456.073; -976.156; -903.719
496.209;   24.298; -599.149; -451.732
496.494;  -28.959; -763.142; -544.744
496.778;   19.063; -364.154; -360.722
497.062;  -24.853; -819.156; -627.719
497.346;   26.598; -869.160; -640.711
497.631;  186.732;  580.852;  560.266
497.915;   98.112;  -64.145;  175.261
498.199;   48.787; -341.157; -277.718
498.483;   56.634; -562.152; -508.725
498.767;  261.032;  301.850;  300.271
499.051;  284.820; -126.149; -100.732
499.335;   97.643; -693.149; -739.731
499.619;  -14.369; -381.129; -423.767
499.903;   18.906; -272.155;  -65.721
500.187;   34.922; -588.153; -316.724
500.471;   32.890; -796.152; -595.727
500.755;   95.768;   62.839;  -96.710
501.039;    5.532; -270.155; -357.721
501.323;   71.984;  -21.141;  264.254
501.607;   36.465; -447.163; -503.706
501.891;   11.764; -607.156; -512.718
502.174;  -36.349; -726.144; -585.741
502.458;   83.045;   89.849;  370.273
502.742;   62.563; -180.138; -191.751
503.026;  196.486; -412.147; -254.734
503.310;  338.559; -437.159; -375.713
503.593;  222.014; -464.147; -325.735
503.877;  145.812; -232.133; -156.760
504.161;  191.400;    2.847;  -50.724
504.444;  194.501; -841.158; -710.716
504.728;  797.882; -487.164; -522.704
505.012; 1126.654; -257.150;  -76.729
505.295;  806.219; -417.161; -212.711
505.579;  844.847; -256.156; -496.719
505.862; 1278.408; -555.145; -333.738
506.146; 1303.137; -681.159; -758.714
506.429;  580.063;  568.841;  461.286
506.713;  155.075; -732.151; -667.728
506.996;  485.662;   90.846;  295.278
507.280;  576.151; -633.165; -474.703
507.563;  410.155; -469.155; -261.721
507.847;  193.123; -423.153; -112.724
508.130;  184.220; -665.161; -456.711
508.413;  244.553; -758.167; -577.700
508.697;  421.454; -151.167;   12.300
508.980;  281.700; -422.153; -312.724
509.263;   34.850; -466.155; -450.720
509.547;   47.978; -124.150;   82.271
509.830;   62.773; -172.160;  140.289
510.113;  109.747;  128.844;  298.281
510.396;   72.332; -530.152; -300.725
510.680;   64.684; -818.145; -812.738
510.963;  205.343;  184.846;  180.277
511.246;  120.713; -493.150; -357.730
511.529;  308.440; -482.145;  -83.739
511.812;  625.133; -250.134;   10.241
512.095;  490.021; -740.151; -396.728
512.378;  105.419; -317.147; -245.736
512.661;   93.022; -703.137; -623.753
512.944;   99.743; -750.142; -637.744
513.227;  107.844; -170.137; -171.752
513.510;   76.751; -479.144; -671.741
513.793;   47.564; -485.140; -435.747
514.076;  180.031;  -43.127;  -39.771
514.359;  158.374; -294.149; -135.732
514.642;  153.247; -442.142; -567.744
514.925; 1162.262;  581.860;  561.253
515.208; 1698.704; -498.134; -443.758
515.491; 1039.546; -276.133; -182.761
515.773;  611.555; -410.143; -337.742
516.056; 3353.630;  249.864;  409.246
516.339; 4393.235; -754.136; -652.755
516.622; 2035.610; -518.150; -488.730
516.904;  562.114;  882.857;  975.257
517.187;  218.142; -730.138; -523.752
517.470;  437.163; -568.143; -510.743
517.752;  733.988; -624.136; -470.756
518.035;  589.627; -708.139; -725.749
518.318;  628.710; -799.136; -744.755
518.600; 4073.725; -300.132; -325.762
518.883; 5574.896;  310.858;   88.256
519.165; 2546.883; -585.138; -426.751
519.448;  446.600;  -61.132;  -19.762
519.730;  216.990; -573.126; -415.773
520.013;  244.716;  588.867;  664.240
520.295;  309.135;  -94.134;  -15.759
520.578;  604.316; -335.131; -305.764
520.860;  858.275; -254.132;   56.238
521.143;  639.216; -763.135; -584.756
521.425;  599.281; -251.125; -279.775
521.707;  999.082; -622.127; -380.771
521.990; 2838.107; -199.127;  167.229
522.272; 3240.091; -116.140;   -4.748
522.554; 1198.281; -237.143; -157.742
522.836;  241.433;  -24.134;   99.241
523.119;  200.960; -496.148; -189.734
523.401;  181.624; -448.130; -314.766
523.683;  166.798; -865.137; -693.753
523.965;  444.765;  408.862;  260.248
524.247;  447.032;   54.878;  170.220
524.529;  335.585; -451.134; -367.759
524.812;  503.051;   -3.130;  191.234
525.094; 1428.464; -773.138; -631.751
525.376; 2244.217; -143.124;   78.223
525.658; 1338.006; -441.136; -339.754
525.940;   95.262; -805.131; -671.764
526.222;   34.411; -188.136;  -88.755
526.504;   71.884; -190.131;   32.237
526.786;   32.738; -960.133; -647.760
527.068;  112.674; -124.123;  -67.778
527.349;   -1.973; -865.137; -774.754
527.631;  120.774; -137.132;   22.238
527.913;  253.931; -664.127; -450.771
528.195;  331.548; -761.125; -639.774
528.477;  405.679;  -93.134;  -30.758
528.759;  282.176; -648.130; -522.766
529.040;  159.123; -569.123; -293.778
529.322;   96.201; -235.125;  -10.774
529.604;  111.654;  -47.130;   93.233
529.886;   50.190; -546.126; -302.773
530.167;   90.194;  232.870;  192.235
530.449;   42.493;    1.853;   63.265
530.731;   87.681; -572.122; -459.779
531.012;  157.557; -513.120; -216.784
531.294;  150.005; -118.116;  -43.792
531.575;  211.431;  290.875;  538.225
531.857;  149.373; -548.135; -266.757
532.138;  112.657; -113.141;   40.254
532.420;  123.868;  294.865;  403.244
532.701;   79.341; -722.133; -751.760
532.983;  198.220;  232.867;  182.239
533.264;   59.913; -243.126;  175.228
533.546;  -30.764; -491.136; -508.755
533.827;   22.987;  173.867;   -1.759
534.109;   27.247; -352.135;  -80.757
534.390;  110.179; -725.132; -582.762
534.671;  313.118; -270.135;  -82.756
534.953;  213.201; -751.123; -611.779
535.234;   56.386; -426.117; -255.789
535.515;  -43.008; -891.119; -735.785
535.796;   12.451; -431.128; -193.770
536.078;  -84.483;-1050.124; -904.777
536.359;   25.377;  -22.123;    3.221
536.640;   -8.426; -480.125; -197.774
536.921;  176.060;  225.871;  143.232
537.202;  557.110;  -87.138;  -16.751
537.483;  702.715;  251.869;  377.236
537.764;  274.019;   17.870;   98.235
538.045;   -8.872; -543.134; -371.758
538.326;  -13.863; -596.129; -447.768
538.607;   83.833; -686.127; -476.771
538.888;  283.646;   98.879;    5.218
