
Integration time [ms]: 100.000
Averaging Nr. [scans]: 40
Smoothing Nr. [pixels]: 0
Data measured with spectrometer [name]: 2101013U2
Wave   ;Sample   ;Dark     ;Reference
[nm]   ;[counts] ;[counts] ;[counts] 

394.013;   71.139; -450.257; -315.536
394.305;  181.436; -461.258; -419.536
394.596; 1618.580; -676.269; -527.514
394.887; 4259.251; -796.268; -654.518
395.178; 1525.015;  145.736;   11.476
395.470;  108.204; -210.263; -356.526
395.761;  149.920;  305.734;  394.479
396.052;  109.719; -545.284; -306.489
396.343;  106.459; -557.276; -454.503
396.634;   53.069; -200.279; -290.497
396.926;   45.097; -618.268; -565.517
397.217;   77.339;   11.725;  -17.504
397.508;   55.210; -366.273; -154.507
397.799;   38.544; -555.279; -571.497
398.090;   12.186; -973.280; -902.495
398.381;   99.523;   11.708;  -11.473
398.672;   -6.025; -585.292; -742.473
398.963;   36.301; -348.279; -373.498
399.254;   85.811;   54.709; -209.475
399.545;   -2.459;-1017.266; -883.520
399.836;   60.695; -407.277; -343.501
400.127;   53.493; -205.295; -209.468
400.418;   51.128; -423.274; -392.506
400.709;   43.470; -359.281; -333.493
401.000;   65.566; -268.291; -309.476
401.290;  135.987;  225.698;  115.545
401.581;   92.272; -166.286; -228.485
401.872;   63.857; -542.298; -486.462
402.163;   89.008; -313.296; -252.467
402.454;  136.112; -123.291; -163.475
402.744;   69.597; -844.297; -813.465
403.035;  276.162; -226.293;  -86.471
403.326;  348.553; -366.292; -384.474
403.617;  369.025;  204.701;  165.539
403.907;  433.077; -593.283; -679.490
404.198; 3676.628; -545.307; -599.446
404.489; 9256.058; -618.283; -588.491
404.779; 2601.591; -618.302; -660.456
405.070;  322.489;  -67.304; -174.451
405.360;  555.565; -259.293; -238.472
405.651;  513.131;  125.699;   98.542
405.942;  201.216;  209.714;  127.516
406.232;  137.910; -432.285; -413.487
406.523;  282.030;  641.706;  758.530
406.813;  106.694; -579.286; -644.484
407.104;  267.097;  261.708;  144.527
407.394;  135.102; -604.299; -591.462
407.685;  181.034;  336.715;  222.513
407.975;  125.306; -400.283; -382.490
408.265;  160.631; -134.289; -190.478
408.556;  101.908; -472.291; -459.475
408.846;  202.507;  474.706;  429.530
409.137;  135.816;   -1.288; -216.480
409.427;  120.184; -193.285; -271.487
409.717;   91.214; -776.273; -692.508
410.007;  194.801;    4.715; -170.486
410.298;  144.021; -360.295; -342.469
410.588;  139.856; -495.285; -510.486
410.878;   89.506; -792.287; -873.482
411.168;  135.635; -481.298; -478.463
411.459;  179.924; -295.283; -242.489
411.749;  118.606; -609.292; -507.474
412.039;  114.064; -755.289; -386.480
412.329;  252.811;   40.722;  132.501
412.619;  249.519;  -62.286; -148.485
412.909;  410.384;  639.711;  594.521
413.199;  372.062; -130.280; -251.495
413.490;  421.122;  521.710;  352.523
413.780;  260.067;-1013.279; -913.496
414.070;  432.485;  -46.276;  235.497
414.360;  444.656; -729.278; -666.498
414.650;  600.201; -726.288; -688.482
414.940;  828.691; -538.280; -441.496
415.230; 1317.897;   50.712;   74.519
415.520; 8969.179;  155.730;   66.486
415.809;36256.544; -305.281; -125.493
416.099;26941.998; -388.277; -229.501
416.389; 7830.075;  435.726;  236.494
416.679; 4516.634;   91.738;   85.473
416.969;  823.711; -527.287; -503.483
417.259;  707.919;  341.721;  171.503
417.549;  964.843;  522.718;  318.508
417.838; 2489.525; -205.268; -147.518
418.128; 8528.254;  650.710;  492.522
418.418; 6953.297; -491.272; -579.509
418.708; 4682.700;    9.726;  -48.506
418.997;18118.395; -474.275; -480.505
419.287;18198.209; -733.273; -790.507
419.577;17641.673; -160.283; -123.489
419.866;56712.745; -588.277; -498.501
420.156;55530.423; -242.270;  -55.513
420.446; 9230.174; -112.263;  -26.526
420.735;  976.591; -376.271; -446.512
421.025;  947.005; 1830.722;  315.502
421.314;  621.688; -203.271; -226.512
421.604;  788.791;   89.732;  233.484
421.893;  491.059; -705.271; -602.511
422.183;  326.775; -487.263; -461.526
422.472;  440.260;  -36.271; -107.511
422.762;  445.323; -416.266; -379.521
423.051;  319.211; -916.276; -916.503
423.341;  369.661; -491.273; -439.507
423.630;  455.206; -121.265;   15.477
423.919;  487.044;   58.725;   49.495
424.209;  507.582;  -31.263;   56.473
424.498;  662.747;   68.732;  161.483
424.787; 1497.680; -535.267; -601.518
425.077; 4330.979;   34.735;   29.478
425.366; 4631.814; -734.262; -744.528
425.655;12896.712;  639.727;  259.493
425.945;33421.229; -313.247; -268.554
426.234;17515.968;  117.741;  300.467
426.523; 7736.049;  -86.259; -350.534
426.812;10298.543;  107.734;  159.480
427.101;15072.486; -127.269; -323.515
427.390;17425.953;  -55.270;  -86.514
427.680; 2529.200; -624.257; -411.538
427.969;  557.213; -330.255; -301.540
428.258;  423.664; -385.257; -477.536
428.547;  555.852;  449.728;  397.490
428.836;  763.584; -421.253; -398.543
429.125; 1050.702; -199.259;  -72.534
429.414;  863.038; -330.251; -294.548
429.703; 4716.913; -231.251; -213.548
429.992;14479.193; -938.250; -828.549
430.281; 9044.965; -397.264; -331.524
430.570;  727.651;  -21.252;   32.454
430.859;  544.924;  279.741;  352.466
431.148;  532.798;  636.752;  631.446
431.437;  412.900;  391.748;  367.454
431.725;  257.441; -544.257; -481.536
432.014;  254.918; -845.253; -756.545
432.303;  484.095; -149.239; -105.569
432.592;  642.524; -460.263; -178.525
432.881; 1496.475; -601.248; -437.554
433.169; 9706.414; -343.255;  -61.540
433.458;19562.564;  445.765;  540.424
433.747; 7654.346; -397.261; -289.529
434.036; 1018.964; -275.242; -280.564
434.324; 2997.434; -395.249; -379.551
434.613; 5289.281;   40.757;  159.437
434.902; 1586.883;  333.760;  439.433
435.190;  370.944;   75.761;  295.431
435.479;  244.908;  -52.245;   83.441
435.767;  154.093; -411.244; -427.561
436.056;  283.834; -340.242; -294.563
436.345;  558.136; -372.240; -223.568
436.633;  508.327;   60.750;  383.450
436.922;  283.089;  208.760;  414.432
437.210;  326.026; -194.236;    1.426
437.499;  666.036; -583.235; -432.576
437.787;  726.300; -339.236;  -10.574
438.075;  277.551;   56.761;  162.430
438.364;  283.804;  -44.238;  250.429
438.652;  188.938; -286.226; -138.592
438.941;  133.367;    3.770;  269.415
439.229;   44.647; -665.252; -466.545
439.517;   86.622; -160.234;  -85.577
439.806;   44.683; -501.225; -290.595
440.094;  209.857;  377.766;  650.421
440.382;   96.561; -653.233; -302.580
440.670;   97.036; -361.235; -285.576
440.959;   50.605; -347.223; -170.599
441.247;   85.832; -151.229; -109.587
441.535;   82.695; -266.235;   31.423
441.823;   32.178; -497.234; -305.578
442.111;  194.662;  173.771;  327.412
442.400;  349.782; -628.245; -335.559
442.688;  637.531; -111.234; -620.579
442.976;  340.268; -786.213; -450.617
443.264;   76.292; -324.224; -364.597
443.552;   93.114; -258.226;   51.408
443.840;  168.593;  602.765;  876.423
444.128;  124.760;  265.767;  269.420
444.416;   16.615; -694.228; -312.588
444.704;   44.993; -465.219;  -92.605
444.992;   87.368;   -0.226;  240.407
445.280;   37.693; -517.230;  -94.585
445.568;   33.497; -694.212; -396.618
445.856;  169.648; -174.221;  357.398
446.143;  294.613;  -54.220;   -7.604
446.431;  264.795;  -25.228;  625.411
446.719;  189.518;  489.783;  675.391
447.007;  184.386;  481.769;  705.416
447.295;  215.902;  597.777;  871.402
447.583;  121.904; -464.229;  -34.587
447.870;  145.294; -434.221; -202.601
448.158;  290.066; -104.230;  129.415
448.446;  193.140; -800.219; -338.604
448.733;  180.893;   13.776;  269.403
449.021;  245.097;   60.788;  341.382
449.309;  234.366; -296.210;  208.379
449.596;  284.263;  128.783;   59.392
449.884;  260.061; -571.222; -325.600
450.172;  325.902; -756.227; -406.590
450.459;  688.321;  645.786;  780.387
450.747; 3806.711; -411.218; -147.608
451.034;12125.522;  493.772;  889.411
451.322; 9633.450; -413.214; -170.614
451.609;  750.545;  292.777;  508.403
451.897;  965.821; -550.203; -183.634
452.184; 2833.477; -622.223; -400.598
452.472; 2482.843;   97.792;  269.375
452.759;  398.416;  512.781;  864.395
453.047;  134.769; -407.212; -125.617
453.334;   89.051; -732.219; -216.606
453.621;   90.378; -438.214; -161.615
453.909;  152.986;   13.796;  384.368
454.196;  190.244; -299.199; -123.641
454.483;  316.038;  317.798;  540.364
454.771;  232.272; -215.208;  196.374
455.058;   94.851; -316.207;  102.374
455.345;  183.540;   71.807;  344.347
455.632;  175.505; -128.207;  235.373
455.919;  118.423;  -82.196;  182.354
456.207;    4.750; -774.198; -450.642
456.494;   32.503; -475.200;  -66.639
456.781;   65.257; -399.202; -198.635
457.068;  119.764; -253.206;  -29.628
457.355;   49.715; -698.206; -401.629
457.642;   69.997; -552.205; -290.630
457.929;   86.078; -778.194; -417.651
458.216;  161.219; -575.212; -354.617
458.503;  403.409; -173.193;  -19.652
458.790;  464.169; -864.208; -630.625
459.077;  454.914;  -77.202;  110.364
459.364; 1277.519; -350.195; -210.649
459.651; 2595.661;  -46.206;  220.372
459.938; 1182.432; -864.209; -665.623
460.225;  155.768;  132.799;  276.363
460.512;   29.444; -836.197; -688.645
460.799;  207.935;  -32.218;  320.392
461.086;  215.059; -370.200; -251.640
461.372;   61.175; -509.198; -279.642
461.659;  105.274; -165.196;  108.354
461.946;   72.257; -445.193;  -54.651
462.233;  258.581;  842.800;  888.361
462.519;  525.427; -814.201; -464.639
462.806; 1607.895; -768.197; -497.645
463.093; 1325.859; -445.191;  -66.656
463.380;   52.686; -920.186; -824.664
463.666;   85.172; -259.197;  -18.646
463.953;  163.462; -406.195; -243.648
464.239;  265.387; -173.195;  -77.648
464.526;  403.626;  413.806;  743.350
464.813;  330.848; -565.190; -304.658
465.099;  354.409;  606.807;  607.348
465.386;  288.964;  903.807;  921.348
465.672;   88.145; -694.197; -522.645
465.959;  126.171; -598.188; -520.662
466.245;   53.114; -468.193; -359.652
466.532;  102.835; -109.195;   63.352
466.818;   75.511; -357.186; -216.664
467.104;   41.512; -488.182; -415.672
467.391;   48.026; -628.189; -459.658
467.677;   89.366; -289.186;    9.335
467.964;   50.309; -682.189; -471.660
468.250;  112.344; -331.186; -160.665
468.536;  139.628;   90.811;  180.341
468.822;   39.634; -821.184; -574.668
469.109;  186.115;  351.827;  471.311
469.395;  247.576;  729.808;  787.346
469.681;  287.206;   46.811;  156.341
469.967; 1861.262; -699.188; -382.660
470.254; 4116.172; -494.188; -306.662
470.540; 2525.298; -601.196; -476.646
470.826;  380.077; -488.181; -397.675
471.112;  428.864;  288.816;  113.331
471.398;  143.220; -253.183;  -58.670
471.684;   95.088; -626.177; -447.680
471.970;   86.031; -918.180; -981.675
472.256;   92.700; -521.192; -441.654
472.542;   88.504; -499.171; -434.691
472.828;  103.382; -743.182; -607.672
473.114;   88.285; -380.166; -283.700
473.400;   94.859; -504.175; -293.684
473.686;   92.943; -452.166; -400.701
473.972;  103.452; -230.174; -131.687
474.258;   29.216; -925.173; -843.689
474.544;  326.977; -183.178;   -2.679
474.830;  518.061;  -65.175;   45.316
475.116;  762.800; -123.190; -196.658
475.401; 1022.634; -558.180; -467.676
475.687;  279.208; -725.180; -718.676
475.973;   37.517; -673.181; -770.673
476.259;  310.514;  736.825;  764.315
476.544;  598.198; -539.176; -437.682
476.830; 1316.549; -398.172; -322.690
477.116; 1123.421; -430.177; -336.682
477.401;  186.534;  346.820;  358.324
477.687;   29.734; -289.175; -405.684
477.973;   79.047;   21.819;   28.326
478.258;   30.369; -448.163; -348.706
478.544;   68.651;   21.815;   61.334
478.829;  -16.438; -818.171; -738.692
479.115;   -2.901; -749.172; -651.690
479.401;   42.822; -444.174; -449.686
479.686;   76.282; -253.180;  -74.676
479.972;   45.309; -886.178; -776.680
480.257;   75.537; -258.166;  -65.700
480.542;   84.591; -614.170; -469.693
480.828;  298.057; 1288.824; 1392.317
481.113;   27.479; -464.176; -426.683
481.399;   39.375; -236.161; -202.711
481.684;   14.286; -620.166; -462.700
481.969;   74.017; -158.159;  -73.713
482.255;   42.005; -439.169; -285.695
482.540;   58.684; -569.178; -441.680
482.825;  102.430; -395.187; -404.663
483.110;  187.684;  -85.169; -105.696
483.396;  399.894; -840.157; -652.718
483.681;  740.928;  543.826;  730.313
483.966;  305.409; -696.160; -700.712
484.251;   33.276; -404.174; -310.687
484.536;   50.475; -356.165; -378.703
484.822;   83.530; -205.173; -218.687
485.107;   31.318; -599.152; -502.726
485.392;  164.532;  662.836;  541.296
485.677;  111.447;  354.832;  163.302
485.962;  160.116;  160.843;  270.283
486.247;  154.979;  -14.162;   -8.707
486.532;  108.063; -178.166; -325.701
486.817;  197.617;  381.839;  431.291
487.102;  172.296; -453.154; -514.722
487.387; 1003.772; -637.156; -652.718
487.672; 1824.839; -154.164;  -38.705
487.957; 1123.902; -394.160; -286.711
488.241;  372.264; -290.150; -314.729
488.526; 1096.745; -280.152; -148.726
488.811; 1844.236; -881.177; -818.680
489.096; 1284.525; -666.154; -702.723
489.381;  684.865;    3.847;  162.275
489.666;  620.349; -428.161; -510.710
489.950;  238.029;  558.846;  627.277
490.235;   17.258; -480.151; -458.728
490.520;   -5.077; -756.161; -723.710
490.804;   11.224; -827.156; -736.719
491.089;   56.660; -469.149; -299.732
491.374;   69.087; -132.164;  -75.704
491.658;   14.349; -817.147; -717.735
491.943;  142.725; -657.152; -609.727
492.227;  215.866; -178.155;  -38.721
492.512;   66.241; -294.157; -341.717
492.797;  -34.223; -713.149; -716.731
493.081;  -27.222; -588.147; -598.735
493.366;   -2.525; -751.161; -635.711
493.650;  251.646;  831.859;  917.254
493.935;   86.698; -648.147; -447.734
494.219;   -3.046; -778.142; -687.743
494.503;   -5.555; -585.150; -487.730
494.788;   75.880;   46.842;   74.285
495.072;  141.591;  184.850;  434.271
495.356;  238.914; -463.148; -343.733
495.641;  499.036; -812.146; -736.736
495.925;  429.106; -976.156; -903.719
496.209;   38.984; -599.149; -451.732
496.494;   10.705; -763.142; -544.744
496.778;   41.396; -364.154; -360.722
497.062;  -17.095; -819.156; -627.719
497.346;   31.229; -869.160; -640.711
497.631;  175.218;  580.852;  560.266
497.915;  113.750;  -64.145;  175.261
498.199;   78.169; -341.157; -277.718
498.483;   58.018; -562.152; -508.725
498.767;  261.143;  301.850;  300.271
499.051;  278.256; -126.149; -100.732
499.335;   81.679; -693.149; -739.731
499.619;   -2.025; -381.129; -423.767
499.903;   49.464; -272.155;  -65.721
500.187;   60.106; -588.153; -316.724
500.471;   50.949; -796.152; -595.727
500.755;  115.298;   62.839;  -96.710
501.039;   27.590; -270.155; -357.721
501.323;   89.598;  -21.141;  264.254
501.607;   57.045; -447.163; -503.706
501.891;   34.071; -607.156; -512.718
502.174;    0.089; -726.144; -585.741
502.458;   80.279;   89.849;  370.273
502.742;   65.503; -180.138; -191.751
503.026;  207.123; -412.147; -254.734
503.310;  315.790; -437.159; -375.713
503.593;  208.275; -464.147; -325.735
503.877;  136.230; -232.133; -156.760
504.161;  205.409;    2.847;  -50.724
504.444;  205.208; -841.158; -710.716
504.728;  747.411; -487.164; -522.704
505.012; 1078.739; -257.150;  -76.729
505.295;  833.100; -417.161; -212.711
505.579;  808.905; -256.156; -496.719
505.862; 1175.820; -555.145; -333.738
506.146; 1195.968; -681.159; -758.714
506.429;  551.144;  568.841;  461.286
506.713;  156.310; -732.151; -667.728
506.996;  477.171;   90.846;  295.278
507.280;  561.580; -633.165; -474.703
507.563;  362.338; -469.155; -261.721
507.847;  200.632; -423.153; -112.724
508.130;  192.601; -665.161; -456.711
508.413;  247.181; -758.167; -577.700
508.697;  397.482; -151.167;   12.300
508.980;  267.633; -422.153; -312.724
509.263;   47.933; -466.155; -450.720
509.547;   75.438; -124.150;   82.271
509.830;   76.728; -172.160;  140.289
510.113;  102.830;  128.844;  298.281
510.396;   53.541; -530.152; -300.725
510.680;   65.147; -818.145; -812.738
510.963;  242.802;  184.846;  180.277
511.246;  176.348; -493.150; -357.730
511.529;  291.703; -482.145;  -83.739
511.812;  580.775; -250.134;   10.241
512.095;  423.781; -740.151; -396.728
512.378;  114.030; -317.147; -245.736
512.661;   93.188; -703.137; -623.753
512.944;  113.682; -750.142; -637.744
513.227;  123.259; -170.137; -171.752
513.510;   85.764; -479.144; -671.741
513.793;   63.553; -485.140; -435.747
514.076;  174.251;  -43.127;  -39.771
514.359;  175.160; -294.149; -135.732
514.642;  174.061; -442.142; -567.744
514.925; 1081.426;  581.860;  561.253
515.208; 1546.621; -498.134; -443.758
515.491;  983.038; -276.133; -182.761
515.773;  554.643; -410.143; -337.742
516.056; 3073.996;  249.864;  409.246
516.339; 4046.901; -754.136; -652.755
516.622; 1904.295; -518.150; -488.730
516.904;  600.427;  882.857;  975.257
517.187;  221.108; -730.138; -523.752
517.470;  426.351; -568.143; -510.743
517.752;  678.330; -624.136; -470.756
518.035;  541.817; -708.139; -725.749
518.318;  566.276; -799.136; -744.755
518.600; 3660.343; -300.132; -325.762
518.883; 5055.360;  310.858;   88.256
519.165; 2285.274; -585.138; -426.751
519.448;  443.742;  -61.132;  -19.762
519.730;  222.511; -573.126; -415.773
520.013;  271.558;  588.867;  664.240
520.295;  362.652;  -94.134;  -15.759
520.578;  704.484; -335.131; -305.764
520.860;  900.618; -254.132;   56.238
521.143;  646.407; -763.135; -584.756
521.425;  561.077; -251.125; -279.775
521.707;  906.052; -622.127; -380.771
521.990; 2625.552; -199.127;  167.229
522.272; 2960.631; -116.140;   -4.748
522.554; 1101.519; -237.143; -157.742
522.836;  261.625;  -24.134;   99.241
523.119;  212.621; -496.148; -189.734
523.401;  194.418; -448.130; -314.766
523.683;  168.514; -865.137; -693.753
523.965;  399.680;  408.862;  260.248
524.247;  442.979;   54.878;  170.220
524.529;  301.202; -451.134; -367.759
524.812;  481.095;   -3.130;  191.234
525.094; 1284.829; -773.138; -631.751
525.376; 2014.064; -143.124;   78.223
525.658; 1209.623; -441.136; -339.754
525.940;  111.330; -805.131; -671.764
526.222;   47.952; -188.136;  -88.755
526.504;   73.827; -190.131;   32.237
526.786;   39.981; -960.133; -647.760
527.068;  138.046; -124.123;  -67.778
527.349;    5.093; -865.137; -774.754
527.631;  136.667; -137.132;   22.238
527.913;  215.501; -664.127; -450.771
528.195;  304.818; -761.125; -639.774
528.477;  359.171;  -93.134;  -30.758
528.759;  246.320; -648.130; -522.766
529.040;  137.669; -569.123; -293.778
529.322;   88.147; -235.125;  -10.774
529.604;   92.398;  -47.130;   93.233
529.886;   56.835; -546.126; -302.773
530.167;   82.837;  232.870;  192.235
530.449;   58.504;    1.853;   63.265
530.731;   82.328; -572.122; -459.779
531.012;  144.005; -513.120; -216.784
531.294;  144.380; -118.116;  -43.792
531.575;  204.877;  290.875;  538.225
531.857;  136.589; -548.135; -266.757
532.138;  132.921; -113.141;   40.254
532.420;  135.760;  294.865;  403.244
532.701;   93.434; -722.133; -751.760
532.983;  208.437;  232.867;  182.239
533.264;   72.008; -243.126;  175.228
533.546;   -0.048; -491.136; -508.755
533.827;   48.454;  173.867;   -1.759
534.109;   51.589; -352.135;  -80.757
534.390;  104.547; -725.132; -582.762
534.671;  309.109; -270.135;  -82.756
534.953;  197.298; -751.123; -611.779
535.234;   79.661; -426.117; -255.789
535.515;  -15.535; -891.119; -735.785
535.796;   38.646; -431.128; -193.770
536.078;  -69.312;-1050.124; -904.777
536.359;   42.824;  -22.123;    3.221
536.640;   10.220; -480.125; -197.774
536.921;  167.655;  225.871;  143.232
537.202;  519.325;  -87.138;  -16.751
537.483;  635.508;  251.869;  377.236
537.764;  264.387;   17.870;   98.235
538.045;   -3.905; -543.134; -371.758
538.326;    0.757; -596.129; -447.768
538.607;   71.378; -686.127; -476.771
538.888;  261.843;   98.879;    5.218
