
Integration time [ms]: 200.000
Averaging Nr. [scans]: 10
Smoothing Nr. [pixels]: 0
Data measured with spectrometer [name]: 2101013U2
Wave   ;Sample   ;Dark     ;Reference
[nm]   ;[counts] ;[counts] ;[counts] 

394.013;  -81.726; -450.257; -315.536
394.305; -164.826; -461.258; -419.536
394.596; -160.636; -676.269; -527.514
394.887; -199.835; -796.268; -654.518
395.178;  -10.931;  145.736;   11.476
395.470;  -76.630; -210.263; -356.526
395.761;  124.567;  305.734;  394.479
396.052; -127.849; -545.284; -306.489
396.343; -134.642; -557.276; -454.503
396.634;  -80.645; -200.279; -290.497
396.926; -129.635; -618.268; -565.517
397.217;  -32.641;   11.725;  -17.504
397.508;  -79.540; -366.273; -154.507
397.799; -181.145; -555.279; -571.497
398.090; -242.545; -973.280; -902.495
398.381;  -32.656;   11.708;  -11.473
398.672; -190.356; -585.292; -742.473
398.963;  -97.344; -348.279; -373.498
399.254;   23.345;   54.709; -209.475
399.545; -248.233;-1017.266; -883.520
399.836;  -70.343; -407.277; -343.501
400.127;  -53.959; -205.295; -209.468
400.418;  -60.440; -423.274; -392.506
400.709;  -85.947; -359.281; -333.493
401.000;  -70.055; -268.291; -309.476
401.290;   48.035;  225.698;  115.545
401.581;  -22.050; -166.286; -228.485
401.872; -144.261; -542.298; -486.462
402.163;  -90.159; -313.296; -252.467
402.454;  -61.355; -123.291; -163.475
402.744; -226.560; -844.297; -813.465
403.035;  -87.457; -226.293;  -86.471
403.326;  -97.356; -366.292; -384.474
403.617;   39.538;  204.701;  165.539
403.907; -145.448; -593.283; -679.490
404.198; -166.770; -545.307; -599.446
404.489; -164.448; -618.283; -588.491
404.779; -184.565; -618.302; -660.456
405.070;   -0.767;  -67.304; -174.451
405.360;  -91.657; -259.293; -238.472
405.651;   51.437;  125.699;   98.542
405.942;   55.249;  209.714;  127.516
406.232; -150.349; -432.285; -413.487
406.523;  203.842;  641.706;  758.530
406.813; -161.751; -579.286; -644.484
407.104;   88.744;  261.708;  144.527
407.394; -202.862; -604.299; -591.462
407.685;   42.250;  336.715;  222.513
407.975; -127.448; -400.283; -382.490
408.265;  -53.454; -134.289; -190.478
408.556; -129.955; -472.291; -459.475
408.846;  168.042;  474.706;  429.530
409.137;  -35.853;   -1.288; -216.480
409.427; -109.949; -193.285; -271.487
409.717; -203.539; -776.273; -692.508
410.007;    1.050;    4.715; -170.486
410.298;  -84.158; -360.295; -342.469
410.588; -140.450; -495.285; -510.486
410.878; -216.952; -792.287; -873.482
411.168; -118.361; -481.298; -478.463
411.459;  -65.948; -295.283; -242.489
411.749; -169.256; -609.292; -507.474
412.039; -194.153; -755.289; -386.480
412.329;   59.956;   40.722;  132.501
412.619;  -48.251;  -62.286; -148.485
412.909;  168.947;  639.711;  594.521
413.199;  -36.545; -130.280; -251.495
413.490;  131.846;  521.710;  352.523
413.780; -245.845;-1013.279; -913.496
414.070;   35.958;  -46.276;  235.497
414.360; -173.944; -729.278; -666.498
414.650; -192.652; -726.288; -688.482
414.940; -130.545; -538.280; -441.496
415.230;   15.848;   50.712;   74.519
415.520;   54.464;  155.730;   66.486
415.809;  -57.047; -305.281; -125.493
416.099;  -87.743; -388.277; -229.501
416.389;  144.460;  435.726;  236.494
416.679;   55.470;   91.738;   85.473
416.969; -140.751; -527.287; -503.483
417.259;   66.255;  341.721;  171.503
417.549;  115.953;  522.718;  318.508
417.838;  -44.235; -205.268; -147.518
418.128;  145.646;  650.710;  492.522
418.418; -166.539; -491.272; -579.509
418.708;   19.460;    9.726;  -48.506
418.997; -107.341; -474.275; -480.505
419.287; -222.140; -733.273; -790.507
419.577;  -53.048; -160.283; -123.489
419.866; -157.543; -588.277; -498.501
420.156;  -12.937; -242.270;  -55.513
420.446;  -65.331; -112.263;  -26.526
420.735; -119.537; -376.271; -446.512
421.025;  551.156; 1830.722;  315.502
421.314;  -64.837; -203.271; -226.512
421.604;   18.165;   89.732;  233.484
421.893; -179.438; -705.271; -602.511
422.183; -151.331; -487.263; -461.526
422.472;  -22.338;  -36.271; -107.511
422.762; -122.033; -416.266; -379.521
423.051; -279.842; -916.276; -916.503
423.341; -155.240; -491.273; -439.507
423.630;  -19.732; -121.265;   15.477
423.919;   -5.141;   58.725;   49.495
424.209;  -19.430;  -31.263;   56.473
424.498;    7.765;   68.732;  161.483
424.787; -133.634; -535.267; -601.518
425.077;   -3.732;   34.735;   29.478
425.366; -201.330; -734.262; -744.528
425.655;  210.760;  639.727;  259.493
425.945;  -69.817; -313.247; -268.554
426.234;   33.173;  117.741;  300.467
426.523;  -73.327;  -86.259; -350.534
426.812;   61.467;  107.734;  159.480
427.101;  -13.336; -127.269; -323.515
427.390;    3.264;  -55.270;  -86.514
427.680; -145.825; -624.257; -411.538
427.969; -117.724; -330.255; -301.540
428.258; -148.126; -385.257; -477.536
428.547;   60.262;  449.728;  397.490
428.836; -116.022; -421.253; -398.543
429.125;  -66.827; -199.259;  -72.534
429.414; -104.420; -330.251; -294.548
429.703;  -68.120; -231.251; -213.548
429.992; -289.620; -938.250; -828.549
430.281; -151.931; -397.264; -331.524
430.570;   16.079;  -21.252;   32.454
430.859;   53.473;  279.741;  352.466
431.148;  174.583;  636.752;  631.446
431.437;   82.879;  391.748;  367.454
431.725; -145.226; -544.257; -481.536
432.014; -270.621; -845.253; -756.545
432.303;  -23.610; -149.239; -105.569
432.592; -127.531; -460.263; -178.525
432.881; -216.017; -601.248; -437.554
433.169; -105.324; -343.255;  -61.540
433.458;  123.594;  445.765;  540.424
433.747; -125.829; -397.261; -289.529
434.036; -110.412; -275.242; -280.564
434.324; -185.018; -395.249; -379.551
434.613;   22.287;   40.757;  159.437
434.902;   87.289;  333.760;  439.433
435.190;   20.390;   75.761;  295.431
435.479;  -33.314;  -52.245;   83.441
435.767; -129.214; -411.244; -427.561
436.056; -134.312; -340.242; -294.563
436.345; -131.510; -372.240; -223.568
436.633;   48.481;   60.750;  383.450
436.922;   87.090;  208.760;  414.432
437.210;  -78.707; -194.236;    1.426
437.499; -193.606; -583.235; -432.576
437.787;  -61.807; -339.236;  -10.574
438.075;  -35.809;   56.761;  162.430
438.364;   -0.609;  -44.238;  250.429
438.652;  -83.198; -286.226; -138.592
438.941;  -21.102;    3.770;  269.415
439.229; -198.721; -665.252; -466.545
439.517;  -85.906; -160.234;  -85.577
439.806; -145.797; -501.225; -290.595
440.094;   88.795;  377.766;  650.421
440.382; -162.004; -653.233; -302.580
440.670; -118.806; -361.235; -285.576
440.959; -154.995; -347.223; -170.599
441.247;  -90.501; -151.229; -109.587
441.535;  -73.106; -266.235;   31.423
441.823; -160.005; -497.234; -305.578
442.111;   50.200;  173.771;  327.412
442.400; -194.914; -628.245; -335.559
442.688;  -57.505; -111.234; -620.579
442.976; -235.286; -786.213; -450.617
443.264; -166.496; -324.224; -364.597
443.552;  -76.998; -258.226;   51.408
443.840;  172.994;  602.765;  876.423
444.128;   76.296;  265.767;  269.420
444.416; -204.000; -694.228; -312.588
444.704; -132.992; -465.219;  -92.605
444.992;  -57.098;   -0.226;  240.407
445.280; -139.902; -517.230;  -94.585
445.568; -188.186; -694.212; -396.618
445.856;  -41.494; -174.221;  357.398
446.143;  -65.792;  -54.220;   -7.604
446.431;   -8.700;  -25.228;  625.411
446.719;  139.610;  489.783;  675.391
447.007;  109.598;  481.769;  705.416
447.295;  147.505;  597.777;  871.402
447.583; -115.501; -464.229;  -34.587
447.870; -132.394; -434.221; -202.601
448.158;  -21.002; -104.230;  129.415
448.446; -229.592; -800.219; -338.604
448.733;   -2.796;   13.776;  269.403
449.021;   -9.786;   60.788;  341.382
449.309;  -50.484; -296.210;  208.379
449.596;   37.709;  128.783;   59.392
449.884; -193.495; -571.222; -325.600
450.172; -239.599; -756.227; -406.590
450.459;  157.012;  645.786;  780.387
450.747; -153.691; -411.218; -147.608
451.034;  173.400;  493.772;  889.411
451.322; -128.088; -413.214; -170.614
451.609;   28.104;  292.777;  508.403
451.897; -139.278; -550.203; -183.634
452.184; -199.795; -622.223; -400.598
452.472;  -18.782;   97.792;  269.375
452.759;  144.508;  512.781;  864.395
453.047; -152.386; -407.212; -125.617
453.334; -190.392; -732.219; -216.606
453.621; -159.087; -438.214; -161.615
453.909;  -17.079;   13.796;  384.368
454.196;  -73.074; -299.199; -123.641
454.483;    8.923;  317.798;  540.364
454.771;  -76.782; -215.208;  196.374
455.058;  -96.582; -316.207;  102.374
455.345;   28.731;   71.807;  344.347
455.632;  -43.881; -128.207;  235.373
455.919;  -22.972;  -82.196;  182.354
456.207; -248.674; -774.198; -450.642
456.494; -159.776; -475.200;  -66.639
456.781; -128.277; -399.202; -198.635
457.068;  -63.281; -253.206;  -29.628
457.355; -197.981; -698.206; -401.629
457.642; -156.180; -552.205; -290.630
457.929; -189.170; -778.194; -417.651
458.216; -169.386; -575.212; -354.617
458.503;  -65.269; -173.193;  -19.652
458.790; -243.982; -864.208; -630.625
459.077;  -61.577;  -77.202;  110.364
459.364; -123.471; -350.195; -210.649
459.651;  -23.381;  -46.206;  220.372
459.938; -286.483; -864.209; -665.623
460.225;  -11.477;  132.799;  276.363
460.512; -286.172; -836.197; -688.645
460.799;   15.209;  -32.218;  320.392
461.086; -109.975; -370.200; -251.640
461.372; -155.074; -509.198; -279.642
461.659;  -32.072; -165.196;  108.354
461.946; -124.870; -445.193;  -54.651
462.233;  229.125;  842.800;  888.361
462.519; -261.376; -814.201; -464.639
462.806; -223.972; -768.197; -497.645
463.093; -137.867; -445.191;  -66.656
463.380; -292.863; -920.186; -824.664
463.666;  -57.972; -259.197;  -18.646
463.953; -104.971; -406.195; -243.648
464.239;  -85.071; -173.195;  -77.648
464.526;   94.730;  413.806;  743.350
464.813; -145.066; -565.190; -304.658
465.099;  114.731;  606.807;  607.348
465.386;  179.831;  903.807;  921.348
465.672; -231.472; -694.197; -522.645
465.959; -200.164; -598.188; -520.662
466.245; -135.769; -468.193; -359.652
466.532;  -20.971; -109.195;   63.352
466.818; -114.063; -357.186; -216.664
467.104; -183.659; -488.182; -415.672
467.391; -188.966; -628.189; -459.658
467.677;  -95.263; -289.186;    9.335
467.964; -205.965; -682.189; -471.660
468.250; -125.063; -331.186; -160.665
468.536;   12.934;   90.811;  180.341
468.822; -233.862; -821.184; -574.668
469.109;  106.049;  351.827;  471.311
469.395;  179.232;  729.808;  787.346
469.681;   32.034;   46.811;  156.341
469.967; -214.565; -699.188; -382.660
470.254;  -94.364; -494.188; -306.662
470.540; -203.972; -601.196; -476.646
470.826; -166.158; -488.181; -397.675
471.112;  -15.461;  288.816;  113.331
471.398;  -71.061; -253.183;  -58.670
471.684; -164.055; -626.177; -447.680
471.970; -296.458; -918.180; -981.675
472.256; -158.068; -521.192; -441.654
472.542; -161.050; -499.171; -434.691
472.828; -224.260; -743.182; -607.672
473.114; -136.346; -380.166; -283.700
473.400; -176.654; -504.175; -293.684
473.686; -122.045; -452.166; -400.701
473.972;  -76.952; -230.174; -131.687
474.258; -281.151; -925.173; -843.689
474.544;  -42.256; -183.178;   -2.679
474.830;   -8.254;  -65.175;   45.316
475.116; -106.866; -123.190; -196.658
475.401; -150.358; -558.180; -467.676
475.687; -240.058; -725.180; -718.676
475.973; -196.159; -673.181; -770.673
476.259;  169.447;  736.825;  764.315
476.544; -163.455; -539.176; -437.682
476.830; -133.751; -398.172; -322.690
477.116;  -57.055; -430.177; -336.682
477.401;   86.542;  346.820;  358.324
477.687; -119.954; -289.175; -405.684
477.973;    0.141;   21.819;   28.326
478.258; -127.843; -448.163; -348.706
478.544;  -53.162;   21.815;   61.334
478.829; -242.250; -818.171; -738.692
479.115; -186.351; -749.172; -651.690
479.401; -101.553; -444.174; -449.686
479.686;  -81.558; -253.180;  -74.676
479.972; -250.656; -886.178; -776.680
480.257;  -81.946; -258.166;  -65.700
480.542; -152.149; -614.170; -469.693
480.828;  352.246; 1288.824; 1392.317
481.113; -161.554; -464.176; -426.683
481.399; -102.641; -236.161; -202.711
481.684; -177.546; -620.166; -462.700
481.969;  -42.739; -158.159;  -73.713
482.255; -142.548; -439.169; -285.695
482.540; -182.956; -569.178; -441.680
482.825; -154.664; -395.187; -404.663
483.110;  -36.348;  -85.169; -105.696
483.396; -225.337; -840.157; -652.718
483.681;  178.848;  543.826;  730.313
483.966; -246.840; -696.160; -700.712
484.251; -124.152; -404.174; -310.687
484.536; -126.845; -356.165; -378.703
484.822; -124.952; -205.173; -218.687
485.107; -160.833; -599.152; -502.726
485.392;  148.956;  662.836;  541.296
485.677;    2.353;  354.832;  163.302
485.962;   41.362;  160.843;  270.283
486.247;   -7.942;  -14.162;   -8.707
486.532; -112.946; -178.166; -325.701
486.817;   79.959;  381.839;  431.291
487.102; -190.435; -453.154; -514.722
487.387; -207.237; -637.156; -652.718
487.672;  -34.644; -154.164;  -38.705
487.957;  -89.841; -394.160; -286.711
488.241;  -85.332; -290.150; -314.729
488.526;  -98.733; -280.152; -148.726
488.811; -296.155; -881.177; -818.680
489.096; -228.935; -666.154; -702.723
489.381;  -34.334;    3.847;  162.275
489.666; -149.841; -428.161; -510.710
489.950;  174.165;  558.846;  627.277
490.235; -173.732; -480.151; -458.728
490.520; -216.141; -756.161; -723.710
490.804; -235.137; -827.156; -736.719
491.089; -117.830; -469.149; -299.732
491.374;  -30.544; -132.164;  -75.704
491.658; -213.529; -817.147; -717.735
491.943; -189.333; -657.152; -609.727
492.227;  -69.936; -178.155;  -38.721
492.512; -127.538; -294.157; -341.717
492.797; -215.831; -713.149; -716.731
493.081; -217.429; -588.147; -598.735
493.366; -218.041; -751.161; -635.711
493.650;  209.876;  831.859;  917.254
493.935; -172.529; -648.147; -447.734
494.219; -214.425; -778.142; -687.743
494.503; -192.831; -585.150; -487.730
494.788;   -7.138;   46.842;   74.285
495.072;   65.568;  184.850;  434.271
495.356; -128.630; -463.148; -343.733
495.641; -267.128; -812.146; -736.736
495.925; -266.536; -976.156; -903.719
496.209; -155.230; -599.149; -451.732
496.494; -216.625; -763.142; -544.744
496.778; -113.435; -364.154; -360.722
497.062; -237.136; -819.156; -627.719
497.346; -251.640; -869.160; -640.711
497.631;  114.570;  580.852;  560.266
497.915;  -14.527;  -64.145;  175.261
498.199; -129.937; -341.157; -277.718
498.483; -151.934; -562.152; -508.725
498.767;   66.968;  301.850;  300.271
499.051;  -53.031; -126.149; -100.732
499.335; -231.731; -693.149; -739.731
499.619; -158.213; -381.129; -423.767
499.903;  -89.736; -272.155;  -65.721
500.187; -180.634; -588.153; -316.724
500.471; -252.033; -796.152; -595.727
500.755;  -51.641;   62.839;  -96.710
501.039; -110.836; -270.155; -357.721
501.323;   31.877;  -21.141;  264.254
501.607; -116.643; -447.163; -503.706
501.891; -161.737; -607.156; -512.718
502.174; -195.926; -726.144; -585.741
502.458;   32.267;   89.849;  370.273
502.742;  -65.121; -180.138; -191.751
503.026; -145.829; -412.147; -254.734
503.310; -118.940; -437.159; -375.713
503.593; -145.729; -464.147; -325.735
503.877;  -67.217; -232.133; -156.760
504.161;  -78.534;    2.847;  -50.724
504.444; -272.538; -841.158; -710.716
504.728; -183.244; -487.164; -522.704
505.012;  -78.532; -257.150;  -76.729
505.295; -120.841; -417.161; -212.711
505.579;  -77.036; -256.156; -496.719
505.862; -169.727; -555.145; -333.738
506.146; -211.939; -681.159; -758.714
506.429;   89.561;  568.841;  461.286
506.713; -224.432; -732.151; -667.728
506.996;    5.765;   90.846;  295.278
507.280; -216.044; -633.165; -474.703
507.563; -117.436; -469.155; -261.721
507.847; -179.834; -423.153; -112.724
508.130; -187.241; -665.161; -456.711
508.413; -192.246; -758.167; -577.700
508.697;  -24.246; -151.167;   12.300
508.980; -135.634; -422.153; -312.724
509.263; -154.836; -466.155; -450.720
509.547;  -57.032; -124.150;   82.271
509.830;  -15.140; -172.160;  140.289
510.113;   23.164;  128.844;  298.281
510.396; -154.734; -530.152; -300.725
510.680; -242.227; -818.145; -812.738
510.963;   24.465;  184.846;  180.277
511.246; -167.031; -493.150; -357.730
511.529; -121.427; -482.145;  -83.739
511.812;  -65.617; -250.134;   10.241
512.095; -182.332; -740.151; -396.728
512.378;  -97.729; -317.147; -245.736
512.661; -201.520; -703.137; -623.753
512.944; -193.125; -750.142; -637.744
513.227;  -81.420; -170.137; -171.752
513.510; -142.426; -479.144; -671.741
513.793; -163.723; -485.140; -435.747
514.076;  -41.011;  -43.127;  -39.771
514.359;  -93.530; -294.149; -135.732
514.642; -175.024; -442.142; -567.744
514.925;  138.477;  581.860;  561.253
515.208; -175.618; -498.134; -443.758
515.491;  -98.716; -276.133; -182.761
515.773; -147.026; -410.143; -337.742
516.056;   45.780;  249.864;  409.246
516.339; -268.419; -754.136; -652.755
516.622; -147.831; -518.150; -488.730
516.904;  271.475;  882.857;  975.257
517.187; -237.421; -730.138; -523.752
517.470; -137.925; -568.143; -510.743
517.752; -203.719; -624.136; -470.756
518.035; -199.922; -708.139; -725.749
518.318; -253.019; -799.136; -744.755
518.600; -125.116; -300.132; -325.762
518.883;   38.776;  310.858;   88.256
519.165; -188.021; -585.138; -426.751
519.448;  -66.416;  -61.132;  -19.762
519.730; -200.911; -573.126; -415.773
520.013;  130.483;  588.867;  664.240
520.295;  -53.817;  -94.134;  -15.759
520.578; -120.815; -335.131; -305.764
520.860;  -66.916; -254.132;   56.238
521.143; -232.219; -763.135; -584.756
521.425;  -95.309; -251.125; -279.775
521.707; -174.811; -622.127; -380.771
521.990;  -27.711; -199.127;  167.229
522.272;  -56.923; -116.140;   -4.748
522.554; -118.926; -237.143; -157.742
522.836;  -82.917;  -24.134;   99.241
523.119; -142.729; -496.148; -189.734
523.401; -157.314; -448.130; -314.766
523.683; -266.520; -865.137; -693.753
523.965;   42.679;  408.862;  260.248
524.247;    2.293;   54.878;  170.220
524.529; -189.417; -451.134; -367.759
524.812;  -51.814;   -3.130;  191.234
525.094; -270.421; -773.138; -631.751
525.376;  -60.408; -143.124;   78.223
525.658; -168.019; -441.136; -339.754
525.940; -264.715; -805.131; -671.764
526.222; -111.419; -188.136;  -88.755
526.504;  -62.215; -190.131;   32.237
526.786; -288.417; -960.133; -647.760
527.068;  -91.408; -124.123;  -67.778
527.349; -282.920; -865.137; -774.754
527.631;  -46.916; -137.132;   22.238
527.913; -216.211; -664.127; -450.771
528.195; -250.910; -761.125; -639.774
528.477;  -75.118;  -93.134;  -30.758
528.759; -224.714; -648.130; -522.766
529.040; -172.508; -569.123; -293.778
529.322;  -89.210; -235.125;  -10.774
529.604;  -35.714;  -47.130;   93.233
529.886; -164.811; -546.126; -302.773
530.167;    4.086;  232.870;  192.235
530.449;   -1.029;    1.853;   63.265
530.731; -213.007; -572.122; -459.779
531.012; -187.105; -513.120; -216.784
531.294;  -41.001; -118.116;  -43.792
531.575;   87.791;  290.875;  538.225
531.857; -189.318; -548.135; -266.757
532.138; -110.323; -113.141;   40.254
532.420;  -15.318;  294.865;  403.244
532.701; -266.217; -722.133; -751.760
532.983;   46.584;  232.867;  182.239
533.264;  -51.811; -243.126;  175.228
533.546; -142.619; -491.136; -508.755
533.827;  -25.917;  173.867;   -1.759
534.109; -167.518; -352.135;  -80.757
534.390; -221.816; -725.132; -582.762
534.671;  -93.319; -270.135;  -82.756
534.953; -243.908; -751.123; -611.779
535.234; -162.103; -426.117; -255.789
535.515; -277.704; -891.119; -735.785
535.796; -145.312; -431.128; -193.770
536.078; -321.508;-1050.124; -904.777
536.359;  -71.408;  -22.123;    3.221
536.640; -140.910; -480.125; -197.774
536.921;    3.887;  225.871;  143.232
537.202;  -78.821;  -87.138;  -16.751
537.483;   43.685;  251.869;  377.236
537.764;  -41.214;   17.870;   98.235
538.045; -198.118; -543.134; -371.758
538.326; -209.713; -596.129; -447.768
538.607; -222.011; -686.127; -476.771
538.888;  -67.306;   98.879;    5.218
