
Integration time [ms]: 100.000
Averaging Nr. [scans]: 40
Smoothing Nr. [pixels]: 0
Data measured with spectrometer [name]: 2101013U2
Wave   ;Sample   ;Dark     ;Reference
[nm]   ;[counts] ;[counts] ;[counts] 

394.013;   65.640; -450.257; -315.536
394.305;  224.163; -461.258; -419.536
394.596; 1066.660; -676.269; -527.514
394.887; 2628.702; -796.268; -654.518
395.178; 1020.907;  145.736;   11.476
395.470;   84.843; -210.263; -356.526
395.761;  210.791;  305.734;  394.479
396.052;  320.709; -545.284; -306.489
396.343;  329.929; -557.276; -454.503
396.634;  133.323; -200.279; -290.497
396.926;  138.374; -618.268; -565.517
397.217;  134.309;   11.725;  -17.504
397.508;   69.375; -366.273; -154.507
397.799;   66.098; -555.279; -571.497
398.090;    5.617; -973.280; -902.495
398.381;  142.809;   11.708;  -11.473
398.672;   -3.140; -585.292; -742.473
398.963;   67.154; -348.279; -373.498
399.254;  145.669;   54.709; -209.475
399.545;  -11.912;-1017.266; -883.520
399.836;   67.718; -407.277; -343.501
400.127;   62.935; -205.295; -209.468
400.418;   55.244; -423.274; -392.506
400.709;   82.629; -359.281; -333.493
401.000;   53.623; -268.291; -309.476
401.290;  104.997;  225.698;  115.545
401.581;   84.717; -166.286; -228.485
401.872;   42.607; -542.298; -486.462
402.163;   58.253; -313.296; -252.467
402.454;   94.870; -123.291; -163.475
402.744;   92.519; -844.297; -813.465
403.035;  498.625; -226.293;  -86.471
403.326;  631.438; -366.292; -384.474
403.617;  403.552;  204.701;  165.539
403.907;  253.590; -593.283; -679.490
404.198; 2349.026; -545.307; -599.446
404.489; 6147.995; -618.283; -588.491
404.779; 2121.800; -618.302; -660.456
405.070;  232.779;  -67.304; -174.451
405.360;  350.902; -259.293; -238.472
405.651;  367.587;  125.699;   98.542
405.942;  209.437;  209.714;  127.516
406.232;  312.227; -432.285; -413.487
406.523;  524.270;  641.706;  758.530
406.813;   97.090; -579.286; -644.484
407.104;  374.083;  261.708;  144.527
407.394;  211.053; -604.299; -591.462
407.685;  166.351;  336.715;  222.513
407.975;   61.869; -400.283; -382.490
408.265;  135.910; -134.289; -190.478
408.556;   69.117; -472.291; -459.475
408.846;  168.171;  474.706;  429.530
409.137;   98.343;   -1.288; -216.480
409.427;   71.002; -193.285; -271.487
409.717;   24.853; -776.273; -692.508
410.007;  149.245;    4.715; -170.486
410.298;   99.613; -360.295; -342.469
410.588;   77.724; -495.285; -510.486
410.878;   41.004; -792.287; -873.482
411.168;  146.260; -481.298; -478.463
411.459;  111.863; -295.283; -242.489
411.749;   72.041; -609.292; -507.474
412.039;   63.166; -755.289; -386.480
412.329;  221.511;   40.722;  132.501
412.619;  217.865;  -62.286; -148.485
412.909;  388.537;  639.711;  594.521
413.199;  358.668; -130.280; -251.495
413.490;  428.228;  521.710;  352.523
413.780;  141.197;-1013.279; -913.496
414.070;  336.680;  -46.276;  235.497
414.360;  384.032; -729.278; -666.498
414.650;  433.100; -726.288; -688.482
414.940;  539.646; -538.280; -441.496
415.230;  933.672;   50.712;   74.519
415.520; 6026.434;  155.730;   66.486
415.809;23611.204; -305.281; -125.493
416.099;18209.096; -388.277; -229.501
416.389; 5047.667;  435.726;  236.494
416.679; 2979.522;   91.738;   85.473
416.969;  542.709; -527.287; -503.483
417.259;  470.498;  341.721;  171.503
417.549;  678.253;  522.718;  318.508
417.838; 1630.901; -205.268; -147.518
418.128; 5332.983;  650.710;  492.522
418.418; 4453.809; -491.272; -579.509
418.708; 3038.542;    9.726;  -48.506
418.997;11297.288; -474.275; -480.505
419.287;11805.324; -733.273; -790.507
419.577;10981.213; -160.283; -123.489
419.866;36630.819; -588.277; -498.501
420.156;37838.030; -242.270;  -55.513
420.446; 6906.814; -112.263;  -26.526
420.735;  913.349; -376.271; -446.512
421.025;  875.832; 1830.722;  315.502
421.314;  736.747; -203.271; -226.512
421.604; 1605.569;   89.732;  233.484
421.893;  939.768; -705.271; -602.511
422.183;  249.565; -487.263; -461.526
422.472;  390.870;  -36.271; -107.511
422.762;  474.244; -416.266; -379.521
423.051;  254.956; -916.276; -916.503
423.341;  331.701; -491.273; -439.507
423.630;  438.675; -121.265;   15.477
423.919;  389.887;   58.725;   49.495
424.209;  369.945;  -31.263;   56.473
424.498;  507.423;   68.732;  161.483
424.787; 1077.555; -535.267; -601.518
425.077; 3376.774;   34.735;   29.478
425.366; 4868.801; -734.262; -744.528
425.655; 9759.527;  639.727;  259.493
425.945;20490.905; -313.247; -268.554
426.234;11483.574;  117.741;  300.467
426.523; 5017.979;  -86.259; -350.534
426.812; 6852.690;  107.734;  159.480
427.101;10018.190; -127.269; -323.515
427.390;12793.109;  -55.270;  -86.514
427.680; 3080.123; -624.257; -411.538
427.969;  510.809; -330.255; -301.540
428.258;  331.690; -385.257; -477.536
428.547;  577.214;  449.728;  397.490
428.836; 1377.425; -421.253; -398.543
429.125; 1992.456; -199.259;  -72.534
429.414;  856.773; -330.251; -294.548
429.703; 3095.598; -231.251; -213.548
429.992; 9190.352; -938.250; -828.549
430.281; 6058.407; -397.264; -331.524
430.570;  611.464;  -21.252;   32.454
430.859;  622.603;  279.741;  352.466
431.148;  472.801;  636.752;  631.446
431.437;  319.038;  391.748;  367.454
431.725;  153.092; -544.257; -481.536
432.014;  142.808; -845.253; -756.545
432.303;  396.652; -149.239; -105.569
432.592;  660.739; -460.263; -178.525
432.881; 1052.577; -601.248; -437.554
433.169; 5967.410; -343.255;  -61.540
433.458;12236.411;  445.765;  540.424
433.747; 5186.681; -397.261; -289.529
434.036;  941.703; -275.242; -280.564
434.324; 2062.914; -395.249; -379.551
434.613; 3587.021;   40.757;  159.437
434.902; 1243.817;  333.760;  439.433
435.190;  650.875;   75.761;  295.431
435.479;  372.628;  -52.245;   83.441
435.767;  125.561; -411.244; -427.561
436.056;  248.123; -340.242; -294.563
436.345;  376.494; -372.240; -223.568
436.633;  404.909;   60.750;  383.450
436.922;  280.546;  208.760;  414.432
437.210;  696.800; -194.236;    1.426
437.499; 2257.809; -583.235; -432.576
437.787; 2513.700; -339.236;  -10.574
438.075;  615.506;   56.761;  162.430
438.364;  848.759;  -44.238;  250.429
438.652;  496.138; -286.226; -138.592
438.941;  166.777;    3.770;  269.415
439.229;   18.936; -665.252; -466.545
439.517;   51.642; -160.234;  -85.577
439.806;    0.229; -501.225; -290.595
440.094;  208.725;  377.766;  650.421
440.382;  214.103; -653.233; -302.580
440.670;  244.158; -361.235; -285.576
440.959;   38.847; -347.223; -170.599
441.247;   83.539; -151.229; -109.587
441.535;  127.590; -266.235;   31.423
441.823;   46.422; -497.234; -305.578
442.111;  196.193;  173.771;  327.412
442.400;  613.877; -628.245; -335.559
442.688; 1628.749; -111.234; -620.579
442.976; 1207.234; -786.213; -450.617
443.264;  118.511; -324.224; -364.597
443.552;  113.690; -258.226;   51.408
443.840;  182.989;  602.765;  876.423
444.128;  108.178;  265.767;  269.420
444.416;    8.746; -694.228; -312.588
444.704;   43.151; -465.219;  -92.605
444.992;   85.592;   -0.226;  240.407
445.280;   80.828; -517.230;  -94.585
445.568;   62.113; -694.212; -396.618
445.856;  395.285; -174.221;  357.398
446.143;  862.148;  -54.220;   -7.604
446.431;  712.024;  -25.228;  625.411
446.719;  254.421;  489.783;  675.391
447.007;  194.647;  481.769;  705.416
447.295;  184.144;  597.777;  871.402
447.583;   99.787; -464.229;  -34.587
447.870;  178.357; -434.221; -202.601
448.158;  456.652; -104.230;  129.415
448.446;  360.099; -800.219; -338.604
448.733;  186.512;   13.776;  269.403
449.021;  284.638;   60.788;  341.382
449.309;  190.503; -296.210;  208.379
449.596;  230.467;  128.783;   59.392
449.884;  166.176; -571.222; -325.600
450.172;  146.430; -756.227; -406.590
450.459;  421.268;  645.786;  780.387
450.747; 2289.590; -411.218; -147.608
451.034; 7312.126;  493.772;  889.411
451.322; 6043.196; -413.214; -170.614
451.609;  533.789;  292.777;  508.403
451.897;  574.291; -550.203; -183.634
452.184; 1757.994; -622.223; -400.598
452.472; 1648.824;   97.792;  269.375
452.759;  360.524;  512.781;  864.395
453.047;  125.610; -407.212; -125.617
453.334;   97.082; -732.219; -216.606
453.621;   86.773; -438.214; -161.615
453.909;  135.033;   13.796;  384.368
454.196;  124.403; -299.199; -123.641
454.483;  216.404;  317.798;  540.364
454.771;  139.177; -215.208;  196.374
455.058;   55.455; -316.207;  102.374
455.345;  110.408;   71.807;  344.347
455.632;   90.009; -128.207;  235.373
455.919;   39.601;  -82.196;  182.354
456.207;  -54.067; -774.198; -450.642
456.494;  -14.359; -475.200;  -66.639
456.781;   20.299; -399.202; -198.635
457.068;   64.690; -253.206;  -29.628
457.355;   14.241; -698.206; -401.629
457.642;   -0.053; -552.205; -290.630
457.929;   16.899; -778.194; -417.651
458.216;   59.760; -575.212; -354.617
458.503;  237.679; -173.193;  -19.652
458.790;  225.250; -864.208; -630.625
459.077;  278.854;  -77.202;  110.364
459.364;  775.142; -350.195; -210.649
459.651; 1654.438;  -46.206;  220.372
459.938;  762.140; -864.209; -665.623
460.225;  160.832;  132.799;  276.363
460.512;  -48.402; -836.197; -688.645
460.799;  119.664;  -32.218;  320.392
461.086;   67.645; -370.200; -251.640
461.372;   56.733; -509.198; -279.642
461.659;  126.277; -165.196;  108.354
461.946;   68.828; -445.193;  -54.651
462.233;  237.518;  842.800;  888.361
462.519;  345.015; -814.201; -464.639
462.806;  971.923; -768.197; -497.645
463.093;  869.173; -445.191;  -66.656
463.380;  -16.685; -920.186; -824.664
463.666;   43.175; -259.197;  -18.646
463.953;   95.137; -406.195; -243.648
464.239;  194.337; -173.195;  -77.648
464.526;  404.198;  413.806;  743.350
464.813;  379.060; -565.190; -304.658
465.099;  386.504;  606.807;  607.348
465.386;  357.608;  903.807;  921.348
465.672;   50.623; -694.197; -522.645
465.959;   30.478; -598.188; -520.662
466.245;   16.083; -468.193; -359.652
466.532;  109.185; -109.195;   63.352
466.818;   95.364; -357.186; -216.664
467.104;   10.354; -488.182; -415.672
467.391;  -20.738; -628.189; -459.658
467.677;   33.568; -289.186;    9.335
467.964;   16.443; -682.189; -471.660
468.250;   82.546; -331.186; -160.665
468.536;   87.363;   90.811;  180.341
468.822;  -29.743; -821.184; -574.668
469.109;  149.185;  351.827;  471.311
469.395;  203.242;  729.808;  787.346
469.681;  195.641;   46.811;  156.341
469.967; 1198.346; -699.188; -382.660
470.254; 2645.379; -494.188; -306.662
470.540; 1683.025; -601.196; -476.646
470.826;  255.541; -488.181; -397.675
471.112;  300.861;  288.816;  113.331
471.398;   83.916; -253.183;  -58.670
471.684;   54.444; -626.177; -447.680
471.970;   11.819; -918.180; -981.675
472.256;   36.191; -521.192; -441.654
472.542;   15.396; -499.171; -434.691
472.828;   22.900; -743.182; -607.672
473.114;   40.740; -380.166; -283.700
473.400;   27.235; -504.175; -293.684
473.686;   41.946; -452.166; -400.701
473.972;   53.775; -230.174; -131.687
474.258;  -40.840; -925.173; -843.689
474.544;  198.036; -183.178;   -2.679
474.830;  305.862;  -65.175;   45.316
475.116;  456.411; -123.190; -196.658
475.401;  622.822; -558.180; -467.676
475.687;  200.321; -725.180; -718.676
475.973;    2.308; -673.181; -770.673
476.259;  262.814;  736.825;  764.315
476.544;  357.277; -539.176; -437.682
476.830;  782.342; -398.172; -322.690
477.116;  678.601; -430.177; -336.682
477.401;  148.571;  346.820;  358.324
477.687;  -10.739; -289.175; -405.684
477.973;   40.487;   21.819;   28.326
478.258;   -6.734; -448.163; -348.706
478.544;   51.726;   21.815;   61.334
478.829;  -53.673; -818.171; -738.692
479.115;  -35.458; -749.172; -651.690
479.401;   -8.329; -444.174; -449.686
479.686;   25.345; -253.180;  -74.676
479.972;  -33.834; -886.178; -776.680
480.257;   32.591; -258.166;  -65.700
480.542;   -2.269; -614.170; -469.693
480.828;  249.509; 1288.824; 1392.317
481.113;  -38.118; -464.176; -426.683
481.399;    2.990; -236.161; -202.711
481.684;  -51.184; -620.166; -462.700
481.969;   21.654; -158.159;  -73.713
482.255;   14.316; -439.169; -285.695
482.540;    5.291; -569.178; -441.680
482.825;   -5.140; -395.187; -404.663
483.110;  109.770;  -85.169; -105.696
483.396;  180.250; -840.157; -652.718
483.681;  483.850;  543.826;  730.313
483.966;  138.973; -696.160; -700.712
484.251;    7.049; -404.174; -310.687
484.536;    3.076; -356.165; -378.703
484.822;   13.377; -205.173; -218.687
485.107;  -43.812; -599.152; -502.726
485.392;  138.657;  662.836;  541.296
485.677;   73.304;  354.832;  163.302
485.962;  109.623;  160.843;  270.283
486.247;   95.824;  -14.162;   -8.707
486.532;   56.842; -178.166; -325.701
486.817;  155.460;  381.839;  431.291
487.102;  113.671; -453.154; -514.722
487.387;  635.427; -637.156; -652.718
487.672; 1084.587; -154.164;  -38.705
487.957;  705.642; -394.160; -286.711
488.241;  205.105; -290.150; -314.729
488.526;  707.890; -280.152; -148.726
488.811; 1154.018; -881.177; -818.680
489.096;  846.374; -666.154; -702.723
489.381;  470.811;    3.847;  162.275
489.666;  366.690; -428.161; -510.710
489.950;  174.927;  558.846;  627.277
490.235;  -27.325; -480.151; -458.728
490.520;  -36.211; -756.161; -723.710
490.804;  -51.046; -827.156; -736.719
491.089;   -3.079; -469.149; -299.732
491.374;   38.986; -132.164;  -75.704
491.658;   -5.168; -817.147; -717.735
491.943;  173.319; -657.152; -609.727
492.227;  291.067; -178.155;  -38.721
492.512;   54.047; -294.157; -341.717
492.797;  -63.435; -713.149; -716.731
493.081;  -49.090; -588.147; -598.735
493.366;  -32.284; -751.161; -635.711
493.650;  209.138;  831.859;  917.254
493.935;   23.757; -648.147; -447.734
494.219;  -48.600; -778.142; -687.743
494.503;  -46.890; -585.150; -487.730
494.788;   49.689;   46.842;   74.285
495.072;  111.556;  184.850;  434.271
495.356;  156.274; -463.148; -343.733
495.641;  474.792; -812.146; -736.736
495.925;  450.634; -976.156; -903.719
496.209;   60.345; -599.149; -451.732
496.494;  -36.274; -763.142; -544.744
496.778;   21.147; -364.154; -360.722
497.062;  -52.791; -819.156; -627.719
497.346;  -29.181; -869.160; -640.711
497.631;  137.253;  580.852;  560.266
497.915;   88.477;  -64.145;  175.261
498.199;   56.825; -341.157; -277.718
498.483;   44.063; -562.152; -508.725
498.767;  184.458;  301.850;  300.271
499.051;  182.518; -126.149; -100.732
499.335;   18.691; -693.149; -739.731
499.619;  -37.536; -381.129; -423.767
499.903;   28.616; -272.155;  -65.721
500.187;   25.104; -588.153; -316.724
500.471;   27.668; -796.152; -595.727
500.755;  124.589;   62.839;  -96.710
501.039;   32.691; -270.155; -357.721
501.323;  105.940;  -21.141;  264.254
501.607;   37.242; -447.163; -503.706
501.891;    8.177; -607.156; -512.718
502.174;  -27.262; -726.144; -585.741
502.458;   70.447;   89.849;  370.273
502.742;   34.514; -180.138; -191.751
503.026;   98.456; -412.147; -254.734
503.310;  161.703; -437.159; -375.713
503.593;  123.208; -464.147; -325.735
503.877;  123.854; -232.133; -156.760
504.161;  174.681;    2.847;  -50.724
504.444;  136.316; -841.158; -710.716
504.728;  426.410; -487.164; -522.704
505.012;  667.179; -257.150;  -76.729
505.295;  538.465; -417.161; -212.711
505.579;  510.758; -256.156; -496.719
505.862;  717.998; -555.145; -333.738
506.146;  697.230; -681.159; -758.714
506.429;  396.356;  568.841;  461.286
506.713;   62.002; -732.151; -667.728
506.996;  315.171;   90.846;  295.278
507.280;  313.330; -633.165; -474.703
507.563;  240.965; -469.155; -261.721
507.847;   84.654; -423.153; -112.724
508.130;  100.741; -665.161; -456.711
508.413;  107.187; -758.167; -577.700
508.697;  245.287; -151.167;   12.300
508.980;  143.656; -422.153; -312.724
509.263;  -10.164; -466.155; -450.720
509.547;   35.229; -124.150;   82.271
509.830;   65.368; -172.160;  140.289
510.113;   96.933;  128.844;  298.281
510.396;   44.037; -530.152; -300.725
510.680;  195.850; -818.145; -812.738
510.963;  737.475;  184.846;  180.277
511.246;  640.087; -493.150; -357.730
511.529;  280.755; -482.145;  -83.739
511.812;  350.176; -250.134;   10.241
512.095;  245.749; -740.151; -396.728
512.378;   59.637; -317.147; -245.736
512.661;   35.321; -703.137; -623.753
512.944;   29.978; -750.142; -637.744
513.227;   62.994; -170.137; -171.752
513.510;   21.488; -479.144; -671.741
513.793;   35.569; -485.140; -435.747
514.076;  156.085;  -43.127;  -39.771
514.359;  109.971; -294.149; -135.732
514.642;   70.455; -442.142; -567.744
514.925;  727.618;  581.860;  561.253
515.208;  936.247; -498.134; -443.758
515.491;  619.836; -276.133; -182.761
515.773;  352.067; -410.143; -337.742
516.056; 1945.428;  249.864;  409.246
516.339; 2695.032; -754.136; -652.755
516.622; 1986.810; -518.150; -488.730
516.904; 1419.724;  882.857;  975.257
517.187;  673.317; -730.138; -523.752
517.470;  421.148; -568.143; -510.743
517.752;  432.910; -624.136; -470.756
518.035;  319.580; -708.139; -725.749
518.318;  346.582; -799.136; -744.755
518.600; 2275.064; -300.132; -325.762
518.883; 3132.330;  310.858;   88.256
519.165; 1518.460; -585.138; -426.751
519.448;  419.164;  -61.132;  -19.762
519.730;  222.193; -573.126; -415.773
520.013;  339.957;  588.867;  664.240
520.295;  955.602;  -94.134;  -15.759
520.578; 2153.327; -335.131; -305.764
520.860; 2393.514; -254.132;   56.238
521.143; 1228.012; -763.135; -584.756
521.425;  488.181; -251.125; -279.775
521.707;  655.986; -622.127; -380.771
521.990; 1718.236; -199.127;  167.229
522.272; 1916.071; -116.140;   -4.748
522.554;  903.143; -237.143; -157.742
522.836;  415.075;  -24.134;   99.241
523.119;  234.730; -496.148; -189.734
523.401;  167.709; -448.130; -314.766
523.683;  103.647; -865.137; -693.753
523.965;  287.215;  408.862;  260.248
524.247;  252.527;   54.878;  170.220
524.529;  192.302; -451.134; -367.759
524.812;  353.361;   -3.130;  191.234
525.094;  818.915; -773.138; -631.751
525.376; 1298.890; -143.124;   78.223
525.658;  787.104; -441.136; -339.754
525.940;   19.999; -805.131; -671.764
526.222;   53.008; -188.136;  -88.755
526.504;  147.672; -190.131;   32.237
526.786;  229.055; -960.133; -647.760
527.068;  349.245; -124.123;  -67.778
527.349;  157.976; -865.137; -774.754
527.631;  123.214; -137.132;   22.238
527.913;  138.960; -664.127; -450.771
528.195;  152.674; -761.125; -639.774
528.477;  233.797;  -93.134;  -30.758
528.759;  133.036; -648.130; -522.766
529.040;   59.669; -569.123; -293.778
529.322;   67.251; -235.125;  -10.774
529.604;  159.563;  -47.130;   93.233
529.886;  137.717; -546.126; -302.773
530.167;  150.155;  232.870;  192.235
530.449;   43.236;    1.853;   63.265
530.731;   13.451; -572.122; -459.779
531.012;   62.897; -513.120; -216.784
531.294;   69.211; -118.116;  -43.792
531.575;  152.781;  290.875;  538.225
531.857;   56.867; -548.135; -266.757
532.138;   94.414; -113.141;   40.254
532.420;  185.288;  294.865;  403.244
532.701;  236.632; -722.133; -751.760
532.983;  392.710;  232.867;  182.239
533.264;  139.840; -243.126;  175.228
533.546;  -26.243; -491.136; -508.755
533.827;   57.704;  173.867;   -1.759
534.109;   66.017; -352.135;  -80.757
534.390;  107.718; -725.132; -582.762
534.671;  247.713; -270.135;  -82.756
534.953;  131.297; -751.123; -611.779
535.234;   31.196; -426.117; -255.789
535.515;  -71.995; -891.119; -735.785
535.796;  -15.994; -431.128; -193.770
536.078; -123.986;-1050.124; -904.777
536.359;   11.172;  -22.123;    3.221
536.640;   -4.250; -480.125; -197.774
536.921;  164.168;  225.871;  143.232
537.202;  359.912;  -87.138;  -16.751
537.483;  450.902;  251.869;  377.236
537.764;  164.180;   17.870;   98.235
538.045;  -36.029; -543.134; -371.758
538.326;  -24.830; -596.129; -447.768
538.607;   16.386; -686.127; -476.771
538.888;  173.613;   98.879;    5.218
