
Integration time [ms]: 100.000
Averaging Nr. [scans]: 40
Smoothing Nr. [pixels]: 0
Data measured with spectrometer [name]: 2101012U2
Wave   ;Sample   ;Dark     ;Reference
[nm]   ;[counts] ;[counts] ;[counts] 

197.733;   56.450;  516.000;  404.000
197.879;  -81.475; -610.000; -634.000
198.025;  -57.500; -475.000; -420.000
198.171;  -80.475; -602.000; -612.000
198.317;  -32.800; -401.000; -316.000
198.463;  -67.650; -655.000; -404.000
198.609;   23.975;  181.000; -137.000
198.755;  -72.675; -644.000; -410.000
198.901;  -76.325; -505.000; -424.000
199.047;  -74.400; -615.000; -488.000
199.193;  -36.225; -230.000; -468.000
199.339;  -39.275; -222.000; -369.000
199.485;   30.525;  330.000;  271.000
199.631;   16.750;  227.000;  310.000
199.777;  -56.900; -466.000; -398.000
199.923;  -63.975; -610.000; -424.000
200.069;   -7.325; -141.000;  -58.000
200.215;   54.125;  128.000;  453.000
200.361;   46.875;  243.000;  477.000
200.507;  -63.575; -600.000; -373.000
200.653;  -34.350; -371.000; -194.000
200.798;  -36.600; -215.000; -125.000
200.944;  -19.950; -146.000;  -41.000
201.090;   25.075;   61.000;  222.000
201.236;   -6.200; -116.000; -158.000
201.382;  117.675;  874.000;  903.000
201.528;   -1.225;  -58.000;  -48.000
201.674;  -60.250; -386.000; -293.000
201.819;  -70.800; -540.000; -439.000
201.965;  -83.325; -699.000; -447.000
202.111;  -37.325; -273.000; -226.000
202.257;  -36.225; -250.000; -238.000
202.402;   -4.300;   13.000;  -36.000
202.548;  -33.000; -169.000; -116.000
202.694;   75.625;  410.000; -183.000
202.840;  -89.075; -603.000; -531.000
202.985;  -73.625; -681.000; -639.000
203.131; -112.800; -832.000; -666.000
203.277;  -28.325; -199.000; -262.000
203.423;  -55.975; -434.000; -520.000
203.568;  -42.500; -462.000; -237.000
203.714;  -61.450; -535.000; -542.000
203.860;  -84.325; -682.000; -641.000
204.005;   18.875;  112.000;  167.000
204.151;   64.825;  561.000;  556.000
204.296;  -48.325; -354.000; -221.000
204.442;  -69.350; -600.000; -547.000
204.588;  -63.525; -592.000; -579.000
204.733;   12.600;  178.000;  168.000
204.879; -118.000;-1018.000; -822.000
205.025;   -9.525;  -99.000;  126.000
205.170;  -15.850;  -17.000;   94.000
205.316;   80.275;  438.000;  661.000
205.461;  -92.625; -698.000; -554.000
205.607;   69.125;  609.000;  665.000
205.752;  -87.575; -626.000; -551.000
205.898;  -58.150; -501.000; -391.000
206.043;  -65.375; -578.000; -506.000
206.189;  -42.425; -243.000; -285.000
206.334;   65.125;  554.000;  606.000
206.480;   68.300;  409.000;  239.000
206.625;  -76.900; -529.000; -552.000
206.771;  -46.350; -451.000; -373.000
206.916;  -50.175; -210.000; -537.000
207.062;  -82.300; -545.000; -591.000
207.207;  -67.025; -546.000; -443.000
207.353;   44.025;  185.000;  460.000
207.498;   15.000;  196.000;   85.000
207.643;  -52.775; -501.000; -370.000
207.789; -120.850;-1069.000; -910.000
207.934;  -92.225; -665.000; -713.000
208.080;  -34.200; -154.000;   66.000
208.225;  -12.650;  -22.000;  -57.000
208.370;  -88.050; -727.000; -619.000
208.516;  -78.375; -741.000; -487.000
208.661;  -29.600; -127.000;  -69.000
208.806;  -24.175; -165.000; -171.000
208.952; -118.450;-1044.000; -731.000
209.097;   57.825;  378.000;  349.000
209.242;  -45.050; -307.000; -382.000
209.387;   52.500;  392.000;  350.000
209.533;  -41.125; -321.000; -350.000
209.678;   67.975;  472.000;  543.000
209.823;  -62.375; -408.000; -310.000
209.969;  -99.875; -860.000; -757.000
210.114;  -91.925; -907.000; -719.000
210.259; -131.200; -939.000; -889.000
210.404;  -14.725; -171.000;  103.000
210.549;    6.150;  108.000;    3.000
210.695;  -16.750;   -3.000;  -95.000
210.840;   29.300;   94.000;   67.000
210.985;  -62.325; -484.000; -303.000
211.130;   55.325;  268.000;  406.000
211.275;    4.275;  207.000;  199.000
211.420;  -50.350; -300.000; -289.000
211.566;  -68.775; -536.000; -489.000
211.711;   15.625;  218.000;  157.000
211.856;  -68.100; -545.000; -519.000
212.001;   21.325;  151.000;   44.000
212.146;   20.675;  153.000;   49.000
212.291;  -29.675; -210.000; -186.000
212.436;  -30.575; -280.000;   -6.000
212.581; -100.400; -685.000; -653.000
212.726;  -80.950; -487.000; -538.000
212.871;  -62.075; -552.000; -217.000
213.016; -147.425;-1172.000;-1029.000
213.161;   59.500;  406.000;  291.000
213.306;  -78.700; -435.000; -577.000
213.451;  -83.075; -778.000; -689.000
213.596;  -51.450; -455.000; -347.000
213.741;  -66.225; -448.000; -538.000
213.886;  -80.050; -498.000; -517.000
214.031;  -25.875; -294.000; -124.000
214.176;  -55.425; -408.000; -341.000
214.321;  -22.825; -296.000; -157.000
214.466;  -26.775; -163.000;  -43.000
214.611;  -23.925;  -61.000;  -10.000
214.756; -114.750; -948.000; -858.000
214.901;  -25.650; -388.000; -226.000
215.046; -111.700; -797.000; -825.000
215.191;   11.350;  128.000;   35.000
215.336;  -18.300; -157.000;  -19.000
215.480;  -70.975; -684.000; -505.000
215.625;  -18.200; -175.000;  -19.000
215.770; -101.975; -757.000; -662.000
215.915;   -4.425;   -5.000;  -97.000
216.060;  -20.400; -113.000;  -21.000
216.205;  -96.575; -731.000; -779.000
216.349;  -81.300; -470.000; -533.000
216.494; -135.325; -939.000; -867.000
216.639; -130.450; -823.000; -888.000
216.784;  -90.650; -577.000; -525.000
216.929;   51.975;  392.000;  281.000
217.073;  -22.725; -244.000;  -31.000
217.218;   -0.625;   78.000;  -47.000
217.363;  -86.350; -656.000; -618.000
217.507; -101.675; -623.000; -588.000
217.652; -113.450; -845.000; -874.000
217.797; -102.700; -708.000; -659.000
217.942; -109.175; -856.000; -720.000
218.086;   69.975;  608.000;  539.000
218.231;   -9.175; -174.000;  -26.000
218.376;  -44.400; -337.000; -229.000
218.520;    3.000;  -41.000;   96.000
218.665;  -40.125; -338.000; -204.000
218.810;  -56.750; -275.000; -233.000
218.954;   12.325;  201.000;   35.000
219.099; -105.450; -713.000; -963.000
219.243;  -76.450; -589.000; -554.000
219.388;  -32.850; -264.000; -136.000
219.532;  -21.275; -116.000; -116.000
219.677;  -74.125; -564.000; -521.000
219.822;    5.425;   33.000;   89.000
219.966;    9.950;   17.000;  -99.000
220.111;  -34.850; -328.000;  -40.000
220.255;  -93.925; -797.000; -750.000
220.400;  -24.925; -180.000; -146.000
220.544;  -69.075; -516.000; -450.000
220.689;  -54.200; -422.000; -451.000
220.833;  -27.675; -123.000;  -58.000
220.978;  -47.100; -393.000; -563.000
221.122;   24.050;  319.000;  307.000
221.267; -128.425; -906.000; -837.000
221.411;  -72.675; -478.000; -394.000
221.555;  -12.475; -104.000;  -23.000
221.700;  -58.975; -329.000; -222.000
221.844;   34.300;  255.000;  272.000
221.989;  -57.550; -328.000; -311.000
222.133;  -46.675; -289.000; -307.000
222.277;   -3.675;    5.000;   78.000
222.422;   10.600;  227.000;  113.000
222.566;  -30.825; -381.000; -214.000
222.711;  -61.075; -414.000; -479.000
222.855;  -85.025; -643.000; -586.000
222.999;  -87.825; -642.000; -717.000
223.144;  -40.075; -195.000; -194.000
223.288;   42.775;  423.000;  251.000
223.432;   20.500;  184.000;  230.000
223.576;   13.325;  152.000;  -21.000
223.721;   34.025;  364.000;  273.000
223.865;  -58.075; -472.000; -475.000
224.009;  217.950; 1673.000; 1631.000
224.153;  -81.425; -660.000; -671.000
224.298;  -77.000; -531.000; -489.000
224.442;  -17.200;  -74.000;  -33.000
224.586;   -6.075; -169.000; -106.000
224.730; -106.375; -858.000; -670.000
224.875; -114.800; -739.000; -688.000
225.019;    2.225;  102.000;  188.000
225.163;   45.125;  208.000;  341.000
225.307;    1.350;   97.000;  -91.000
225.451;   36.775;  360.000;  481.000
225.595;   28.600;  264.000;  176.000
225.739;  -12.250; -170.000;  -94.000
225.884;   -6.300;   86.000;    5.000
226.028; -100.275; -760.000; -626.000
226.172;  -43.800; -260.000; -273.000
226.316; -124.850; -941.000; -902.000
226.460;  -69.700; -645.000; -493.000
226.604;  -64.025; -406.000; -400.000
226.748; -106.150; -836.000; -733.000
226.892;  -36.850; -227.000; -181.000
227.036;  -59.075; -537.000; -447.000
227.180;  -47.325; -551.000; -375.000
227.324;  -67.500; -561.000; -580.000
227.468; -110.575; -819.000; -717.000
227.612;   18.100;  242.000;  -28.000
227.756;  -95.400; -845.000; -698.000
227.900;   35.025;  342.000;  441.000
228.044;  -65.600; -509.000; -290.000
228.188;   43.950;  448.000;  568.000
228.332;  -85.400; -546.000; -472.000
228.476;  -27.800; -223.000; -149.000
228.620;  -33.400; -210.000; -150.000
228.764;   61.575;  431.000;  349.000
228.908;   -9.850; -155.000;   30.000
229.052;  -67.675; -615.000; -528.000
229.195;  -25.125; -172.000;   13.000
229.339;  -27.150; -235.000; -305.000
229.483;  -25.000;    5.000; -162.000
229.627;   -8.725; -156.000;  139.000
229.771;  -54.925; -218.000; -294.000
229.915;   -1.500;  230.000;   79.000
230.059;  -97.100; -648.000; -663.000
230.202;  -51.650; -370.000; -317.000
230.346;  -24.075; -107.000;  107.000
230.490;  -54.700; -489.000; -521.000
230.634;  -98.500; -736.000; -553.000
230.777;   56.275;  478.000;  509.000
230.921;  -65.200; -450.000; -359.000
231.065;  -46.350; -246.000; -286.000
231.209;   23.800;  261.000;  265.000
231.352;   11.600;   54.000;   40.000
231.496;   14.875;  568.000;  188.000
231.640;  -83.150; -693.000; -621.000
231.783;   53.950;  546.000;  525.000
231.927;  -58.925; -294.000; -365.000
232.071; -117.150; -962.000; -736.000
232.214; -122.575; -980.000; -764.000
232.358;  -96.400; -683.000; -599.000
232.502;  -13.250;  -19.000;    7.000
232.645; -138.275;-1090.000; -927.000
232.789;  -24.800; -257.000; -218.000
232.933;  -35.925; -407.000; -224.000
233.076; -128.950;-1038.000; -897.000
233.220; -111.025; -752.000; -777.000
233.363;  -85.175; -669.000; -477.000
233.507;   44.925;  371.000;  129.000
233.650;  -97.950; -764.000; -834.000
233.794;   53.700;  438.000;  461.000
233.938;  -71.900; -530.000; -362.000
234.081;  -26.650;  -93.000;   31.000
234.225;  -72.750; -631.000; -539.000
234.368; -117.625; -773.000; -723.000
234.512;  -39.550; -385.000; -299.000
234.655;  -95.975; -582.000; -555.000
234.798;  -73.450; -493.000; -466.000
234.942; -121.900; -884.000;-1002.000
235.085;  -75.150; -651.000; -443.000
235.229;  -86.750; -405.000; -410.000
235.372;  -59.075; -247.000; -191.000
235.516;  -76.825; -397.000; -321.000
235.659;   11.350;   92.000;  121.000
235.802;  -17.350;  -38.000;  -22.000
235.946;   19.250;  335.000;  215.000
236.089;   20.225;  126.000;  250.000
236.233;   41.225;  275.000;  298.000
236.376;  -53.875; -235.000; -378.000
236.519;  -54.350; -297.000; -319.000
236.663;  -17.025; -215.000; -117.000
236.806; -145.375;-1029.000; -999.000
236.949;   22.975;  543.000;  431.000
237.092;   58.175;  412.000;  391.000
237.236;  -84.250; -589.000; -502.000
237.379;   57.600;  352.000;  428.000
237.522; -115.025; -879.000; -768.000
237.666;  -34.450; -271.000;   18.000
237.809; -125.325; -851.000; -823.000
237.952;   16.825;  469.000;  271.000
238.095;  -61.450; -447.000; -442.000
238.238;   74.275;  688.000;  700.000
238.382;  -10.450;  166.000;  103.000
238.525;  -84.575; -598.000; -511.000
238.668; -140.075;-1060.000; -985.000
238.811;  -91.850; -638.000; -643.000
238.954;  -59.125; -483.000; -334.000
239.097;   71.025;  617.000;  664.000
239.241;   15.775;  394.000;  326.000
239.384;  -55.625; -254.000; -214.000
239.527;  -66.525; -424.000; -224.000
239.670; -146.825; -994.000;-1091.000
239.813; -113.300; -696.000; -658.000
239.956;   58.500;  579.000;  473.000
240.099; -109.575; -778.000; -725.000
240.242;   51.050;  428.000;  432.000
240.385;   40.325;  466.000;  450.000
240.528;  -67.175; -706.000; -473.000
240.671;   10.000;  189.000;  134.000
240.814;  -52.150; -441.000; -158.000
240.957; -101.925; -767.000; -578.000
241.100;  -89.750; -779.000; -755.000
241.243; -142.300;-1234.000; -893.000
241.386;  -77.950; -508.000; -379.000
241.529;  -86.725; -735.000; -547.000
241.672;  -62.475; -566.000; -495.000
241.815; -112.800; -832.000; -808.000
241.958;  -43.500; -125.000; -182.000
242.101;  -64.700; -545.000; -390.000
242.244;  -59.850; -270.000; -325.000
242.387;  -48.475; -304.000; -246.000
242.530;   53.100;  470.000;  134.000
242.673;  -50.950; -381.000; -309.000
242.815; -128.100; -925.000; -899.000
242.958;  -68.425; -482.000; -381.000
243.101;    6.875;  132.000;  187.000
243.244;  -85.850; -564.000; -521.000
243.387;  -45.300; -313.000; -316.000
243.530;  -90.025; -657.000; -674.000
243.672;   -7.200;   43.000;  -92.000
243.815;  -41.950; -355.000; -283.000
243.958;   -9.875;   98.000;  -26.000
244.101;    4.950;   59.000;  -16.000
244.243;  -21.900;  -47.000;  101.000
244.386; -107.950; -761.000; -630.000
244.529;  -34.075; -132.000; -139.000
244.672; -151.725;-1154.000; -951.000
244.814; -100.725; -621.000; -794.000
244.957;  -44.150; -380.000; -304.000
245.100;  -87.225; -489.000; -489.000
245.242;  -53.125; -387.000; -374.000
245.385;  -28.300;  -59.000;  -39.000
245.528; -119.325; -871.000; -705.000
245.670;   79.400;  612.000;  634.000
245.813;  -83.150; -599.000; -547.000
245.956;  -46.525; -324.000; -275.000
246.098;  -70.225; -508.000; -650.000
246.241;   -5.225;  194.000;   48.000
246.383;  -35.600; -119.000;  -73.000
246.526;  -84.975; -454.000; -525.000
246.669; -115.750; -889.000; -780.000
246.811;   10.350;  172.000;   -1.000
246.954;  -63.650; -512.000; -426.000
247.096;  -33.250;  -84.000;   -6.000
247.239;  -81.500; -482.000; -445.000
247.381;  -76.100; -647.000; -488.000
247.524;   74.225;  645.000;  679.000
247.666;   -6.125;   58.000;   11.000
247.809; -106.525; -887.000; -691.000
247.951;   -8.125;  -75.000;  138.000
248.094;   10.975;  432.000;  308.000
248.236; -171.200;-1262.000;-1238.000
248.378;  -17.100; -356.000;  -81.000
248.521;  -43.950; -334.000; -337.000
248.663;  -48.950; -236.000; -267.000
248.806;  -44.275; -300.000; -266.000
248.948;  -93.750; -886.000; -763.000
249.090;  -71.500; -428.000; -398.000
249.233;  -78.575; -344.000; -381.000
249.375;  -63.325; -474.000; -451.000
249.518;  -19.875;  -83.000; -133.000
249.660;  -12.750; -103.000;    3.000
249.802; -162.525;-1303.000;-1189.000
249.945;  -93.100; -612.000; -540.000
250.087; -115.825; -834.000; -768.000
250.229;  -58.150; -362.000; -480.000
250.371;  -74.900; -494.000; -439.000
250.514;  -52.200; -310.000; -244.000
250.656;  -65.875;   69.000;  102.000
250.798; -108.825; -849.000; -800.000
250.940;  -60.625; -322.000; -322.000
251.083;  -48.250; -335.000; -111.000
251.225;   46.500;  338.000;  310.000
251.367;  -45.575; -274.000; -373.000
251.509;  -40.075; -265.000; -210.000
251.651;  -99.675; -731.000; -671.000
251.794;   34.300;  538.000;  632.000
251.936; -120.325; -821.000; -747.000
252.078;  -90.250; -540.000; -461.000
252.220;  -76.100; -645.000; -477.000
252.362;   43.050;  344.000;  462.000
252.504;  -75.725; -677.000; -584.000
252.646; -121.525; -875.000; -722.000
252.788;  -20.525;   14.000; -128.000
252.931;  -50.650; -257.000; -253.000
253.073;  -52.675; -376.000; -317.000
253.215;  -12.125;  141.000;  122.000
253.357;  -28.125;   82.000; -153.000
253.499;  -57.100; -374.000; -234.000
253.641; -101.075; -749.000; -594.000
253.783; -103.675; -609.000; -527.000
253.925; -103.875; -586.000; -591.000
254.067; -121.125; -744.000; -667.000
254.209;  -50.425; -391.000; -259.000
254.351; -127.325; -865.000; -883.000
254.493;  -72.200; -441.000; -417.000
254.635; -127.225; -936.000; -818.000
254.777;  -93.525; -752.000; -687.000
254.918;  -63.925; -512.000; -430.000
255.060;  -72.400; -551.000; -395.000
255.202;  -62.775; -473.000; -261.000
255.344;  -83.900; -658.000; -455.000
255.486;  -68.975; -471.000; -406.000
255.628; -109.125; -780.000; -781.000
255.770;  -81.125; -676.000; -536.000
255.912;  -65.625; -559.000; -468.000
256.053;  -99.025; -730.000; -508.000
256.195;  135.650; 1008.000;  903.000
256.337;  -96.700; -861.000; -595.000
256.479;   56.675;  532.000;  416.000
256.621;  -48.175; -394.000; -212.000
256.762; -108.100; -789.000; -742.000
256.904;   50.800;  485.000;  487.000
257.046;  -47.625; -381.000; -271.000
257.188;  -36.750; -351.000; -264.000
257.329;  -80.050; -525.000; -464.000
257.471; -116.150; -939.000; -807.000
257.613;  -74.375; -584.000; -498.000
257.755; -148.050;-1073.000; -982.000
257.896;   25.100;  286.000;  392.000
258.038;  -82.875; -403.000; -352.000
258.180;  -40.725; -354.000; -279.000
258.321;  -80.700; -581.000; -457.000
258.463;  -12.975;  -71.000;  133.000
258.605;  -99.175; -562.000; -570.000
258.746; -109.900; -886.000; -772.000
258.888; -151.625;-1026.000;-1020.000
259.029;    5.000;  121.000;   -8.000
259.171;  -85.800; -614.000; -550.000
259.313;  -30.175;  -49.000;  -47.000
259.454;  -78.475; -536.000; -414.000
259.596;  -64.400; -483.000; -390.000
259.737;  -86.275; -590.000; -474.000
259.879;   10.900;  217.000;  311.000
260.020;   67.875;  901.000;  636.000
260.162;  -44.300; -146.000; -253.000
260.303; -109.850; -768.000; -687.000
260.445;  -77.350; -609.000; -613.000
260.586;   15.475;  392.000;  157.000
260.728;  -59.875; -360.000; -248.000
260.869;  -75.100; -350.000; -343.000
261.011;   64.650;  706.000;  537.000
261.152;  -60.650; -479.000; -319.000
261.293;  -92.475; -576.000; -595.000
261.435;  -29.600; -219.000; -184.000
261.576;  -61.650; -455.000; -325.000
261.718;   47.150;  420.000;  470.000
261.859; -133.050; -940.000; -949.000
262.000; -128.450; -951.000;-1016.000
262.142;  -39.225;  -52.000;  -60.000
262.283; -115.900; -808.000; -691.000
262.424;  -95.750; -666.000; -625.000
262.566; -142.675;-1161.000; -983.000
262.707; -118.200; -840.000; -830.000
262.848; -124.800; -769.000; -726.000
262.990;  -60.575; -362.000; -345.000
263.131;   66.025;  650.000;  681.000
263.272;  -11.225;  -61.000;  -41.000
263.413;  -93.300; -589.000; -561.000
263.555;  -76.125; -669.000; -143.000
263.696;  -71.075; -550.000; -641.000
263.837;  -52.625; -449.000; -551.000
263.978;  -16.500;   -5.000;  -77.000
264.119;  -51.975; -283.000; -264.000
264.261; -114.775; -847.000; -630.000
264.402;  -13.225;   33.000;   40.000
264.543;  -82.350; -509.000; -524.000
264.684;  -22.900;   61.000;  -50.000
264.825;  -70.225; -816.000; -538.000
264.966;  -22.800;  -84.000;  -67.000
265.107; -125.750; -646.000; -670.000
265.248; -124.875; -825.000; -812.000
265.390;   -6.400;  152.000;   -9.000
265.531;  -31.200; -238.000; -107.000
265.672;  -92.850; -557.000; -630.000
265.813;   47.400;  563.000;  439.000
265.954; -149.100; -959.000; -940.000
266.095;  -29.400; -372.000; -322.000
266.236; -105.225; -686.000; -548.000
266.377;  -59.025; -243.000; -297.000
266.518;  -77.725; -619.000; -547.000
266.659;    9.350;  170.000;  268.000
266.800;    9.400;   83.000;   85.000
266.941;  -74.175; -487.000; -478.000
267.082;   15.625;  354.000;   99.000
267.223;  -55.550; -344.000; -273.000
267.364; -127.950; -892.000; -686.000
267.504;  -30.175;    3.000;  135.000
267.645;   -7.475;  160.000;   67.000
267.786;  -44.925; -147.000;  -86.000
267.927;  -89.150; -473.000; -379.000
268.068;  -46.300; -186.000;  -61.000
268.209;  -54.800; -175.000; -413.000
268.350;  -75.900; -388.000; -532.000
268.490;  -89.050; -648.000; -521.000
268.631;   20.200;  127.000;  225.000
268.772; -111.825; -874.000; -647.000
268.913;  -58.450; -328.000; -476.000
269.054;  -24.600; -117.000;   12.000
269.194;  -55.000; -418.000; -402.000
269.335; -152.475;-1137.000;-1074.000
269.476;  -29.825;   33.000;  -35.000
269.617;  -56.675; -347.000; -392.000
269.757;  -99.475; -713.000; -646.000
269.898; -115.725; -856.000; -613.000
270.039;  -76.650; -415.000; -405.000
270.180; -135.125; -952.000; -816.000
270.320;  -35.700; -190.000; -250.000
