
Integration time [ms]: 100.000
Averaging Nr. [scans]: 40
Smoothing Nr. [pixels]: 0
Data measured with spectrometer [name]: 2101012U2
Wave   ;Sample   ;Dark     ;Reference
[nm]   ;[counts] ;[counts] ;[counts] 

197.733;   59.300;  516.000;  404.000
197.879;  -86.500; -610.000; -634.000
198.025;  -45.500; -475.000; -420.000
198.171;  -77.900; -602.000; -612.000
198.317;  -37.575; -401.000; -316.000
198.463;  -57.050; -655.000; -404.000
198.609;   21.025;  181.000; -137.000
198.755;  -83.875; -644.000; -410.000
198.901;  -66.775; -505.000; -424.000
199.047;  -68.400; -615.000; -488.000
199.193;  -44.200; -230.000; -468.000
199.339;  -43.550; -222.000; -369.000
199.485;   43.125;  330.000;  271.000
199.631;   14.450;  227.000;  310.000
199.777;  -51.975; -466.000; -398.000
199.923;  -66.600; -610.000; -424.000
200.069;   -1.075; -141.000;  -58.000
200.215;   64.275;  128.000;  453.000
200.361;   48.675;  243.000;  477.000
200.507;  -52.475; -600.000; -373.000
200.653;  -26.025; -371.000; -194.000
200.798;  -36.300; -215.000; -125.000
200.944;    2.275; -146.000;  -41.000
201.090;   35.000;   61.000;  222.000
201.236;   -5.475; -116.000; -158.000
201.382;  127.800;  874.000;  903.000
201.528;    7.575;  -58.000;  -48.000
201.674;  -39.150; -386.000; -293.000
201.819;  -66.175; -540.000; -439.000
201.965;  -68.150; -699.000; -447.000
202.111;  -21.025; -273.000; -226.000
202.257;  -38.075; -250.000; -238.000
202.402;    6.525;   13.000;  -36.000
202.548;  -27.825; -169.000; -116.000
202.694;   95.025;  410.000; -183.000
202.840;  -69.600; -603.000; -531.000
202.985;  -83.325; -681.000; -639.000
203.131; -113.975; -832.000; -666.000
203.277;  -25.925; -199.000; -262.000
203.423;  -47.550; -434.000; -520.000
203.568;  -34.275; -462.000; -237.000
203.714;  -58.800; -535.000; -542.000
203.860;  -77.800; -682.000; -641.000
204.005;    6.775;  112.000;  167.000
204.151;   76.950;  561.000;  556.000
204.296;  -38.375; -354.000; -221.000
204.442;  -65.175; -600.000; -547.000
204.588;  -72.475; -592.000; -579.000
204.733;   10.925;  178.000;  168.000
204.879; -114.525;-1018.000; -822.000
205.025;    8.525;  -99.000;  126.000
205.170;   -1.775;  -17.000;   94.000
205.316;   74.075;  438.000;  661.000
205.461;  -90.000; -698.000; -554.000
205.607;   86.975;  609.000;  665.000
205.752;  -81.250; -626.000; -551.000
205.898;  -50.700; -501.000; -391.000
206.043;  -67.625; -578.000; -506.000
206.189;  -27.350; -243.000; -285.000
206.334;   51.600;  554.000;  606.000
206.480;   73.525;  409.000;  239.000
206.625;  -85.525; -529.000; -552.000
206.771;  -38.100; -451.000; -373.000
206.916;  -41.375; -210.000; -537.000
207.062;  -73.100; -545.000; -591.000
207.207;  -63.750; -546.000; -443.000
207.353;   40.150;  185.000;  460.000
207.498;   11.925;  196.000;   85.000
207.643;  -53.050; -501.000; -370.000
207.789; -122.175;-1069.000; -910.000
207.934;  -89.450; -665.000; -713.000
208.080;  -22.150; -154.000;   66.000
208.225;  -14.900;  -22.000;  -57.000
208.370;  -84.500; -727.000; -619.000
208.516;  -71.750; -741.000; -487.000
208.661;  -26.475; -127.000;  -69.000
208.806;  -26.150; -165.000; -171.000
208.952; -120.375;-1044.000; -731.000
209.097;   69.250;  378.000;  349.000
209.242;  -48.100; -307.000; -382.000
209.387;   61.150;  392.000;  350.000
209.533;  -56.750; -321.000; -350.000
209.678;   74.400;  472.000;  543.000
209.823;  -50.225; -408.000; -310.000
209.969; -104.550; -860.000; -757.000
210.114; -111.600; -907.000; -719.000
210.259; -105.625; -939.000; -889.000
210.404;  -11.950; -171.000;  103.000
210.549;   10.775;  108.000;    3.000
210.695;  -12.525;   -3.000;  -95.000
210.840;   47.100;   94.000;   67.000
210.985;  -65.475; -484.000; -303.000
211.130;   63.125;  268.000;  406.000
211.275;    8.700;  207.000;  199.000
211.420;  -50.725; -300.000; -289.000
211.566;  -72.700; -536.000; -489.000
211.711;   26.550;  218.000;  157.000
211.856;  -68.975; -545.000; -519.000
212.001;   11.700;  151.000;   44.000
212.146;   20.375;  153.000;   49.000
212.291;  -11.575; -210.000; -186.000
212.436;  -21.550; -280.000;   -6.000
212.581;  -94.375; -685.000; -653.000
212.726;  -79.000; -487.000; -538.000
212.871;  -45.350; -552.000; -217.000
213.016; -144.725;-1172.000;-1029.000
213.161;   64.650;  406.000;  291.000
213.306;  -76.850; -435.000; -577.000
213.451;  -95.750; -778.000; -689.000
213.596;  -40.100; -455.000; -347.000
213.741;  -41.475; -448.000; -538.000
213.886;  -84.300; -498.000; -517.000
214.031;  -21.650; -294.000; -124.000
214.176;  -63.500; -408.000; -341.000
214.321;  -25.650; -296.000; -157.000
214.466;  -17.200; -163.000;  -43.000
214.611;   -5.550;  -61.000;  -10.000
214.756; -110.525; -948.000; -858.000
214.901;   -9.600; -388.000; -226.000
215.046; -122.350; -797.000; -825.000
215.191;   16.700;  128.000;   35.000
215.336;  -12.075; -157.000;  -19.000
215.480;  -65.300; -684.000; -505.000
215.625;  -16.600; -175.000;  -19.000
215.770;  -66.650; -757.000; -662.000
215.915;    5.825;   -5.000;  -97.000
216.060;  -10.200; -113.000;  -21.000
216.205; -106.700; -731.000; -779.000
216.349;  -64.550; -470.000; -533.000
216.494; -133.050; -939.000; -867.000
216.639; -114.425; -823.000; -888.000
216.784;  -86.500; -577.000; -525.000
216.929;   57.375;  392.000;  281.000
217.073;  -23.450; -244.000;  -31.000
217.218;    5.950;   78.000;  -47.000
217.363;  -87.925; -656.000; -618.000
217.507;  -88.300; -623.000; -588.000
217.652; -122.000; -845.000; -874.000
217.797;  -95.550; -708.000; -659.000
217.942; -102.675; -856.000; -720.000
218.086;   75.750;  608.000;  539.000
218.231;   -8.650; -174.000;  -26.000
218.376;  -25.475; -337.000; -229.000
218.520;   -2.925;  -41.000;   96.000
218.665;  -38.150; -338.000; -204.000
218.810;  -55.100; -275.000; -233.000
218.954;   31.775;  201.000;   35.000
219.099; -105.575; -713.000; -963.000
219.243;  -68.850; -589.000; -554.000
219.388;  -27.250; -264.000; -136.000
219.532;   -9.625; -116.000; -116.000
219.677;  -87.650; -564.000; -521.000
219.822;   -4.975;   33.000;   89.000
219.966;   11.100;   17.000;  -99.000
220.111;  -27.575; -328.000;  -40.000
220.255; -105.675; -797.000; -750.000
220.400;  -17.150; -180.000; -146.000
220.544;  -70.200; -516.000; -450.000
220.689;  -57.950; -422.000; -451.000
220.833;  -19.100; -123.000;  -58.000
220.978;  -39.025; -393.000; -563.000
221.122;   23.425;  319.000;  307.000
221.267; -107.400; -906.000; -837.000
221.411;  -60.550; -478.000; -394.000
221.555;  -18.050; -104.000;  -23.000
221.700;  -52.375; -329.000; -222.000
221.844;   37.250;  255.000;  272.000
221.989;  -53.225; -328.000; -311.000
222.133;  -38.850; -289.000; -307.000
222.277;  -12.775;    5.000;   78.000
222.422;   10.600;  227.000;  113.000
222.566;  -40.025; -381.000; -214.000
222.711;  -62.450; -414.000; -479.000
222.855;  -81.050; -643.000; -586.000
222.999;  -82.975; -642.000; -717.000
223.144;  -36.475; -195.000; -194.000
223.288;   48.175;  423.000;  251.000
223.432;   25.800;  184.000;  230.000
223.576;   23.350;  152.000;  -21.000
223.721;   29.225;  364.000;  273.000
223.865;  -50.225; -472.000; -475.000
224.009;  230.750; 1673.000; 1631.000
224.153;  -85.475; -660.000; -671.000
224.298;  -74.125; -531.000; -489.000
224.442;  -19.350;  -74.000;  -33.000
224.586;  -14.175; -169.000; -106.000
224.730; -105.975; -858.000; -670.000
224.875; -102.725; -739.000; -688.000
225.019;   11.650;  102.000;  188.000
225.163;   53.725;  208.000;  341.000
225.307;   11.725;   97.000;  -91.000
225.451;   46.125;  360.000;  481.000
225.595;   37.425;  264.000;  176.000
225.739;  -30.475; -170.000;  -94.000
225.884;    6.125;   86.000;    5.000
226.028; -103.100; -760.000; -626.000
226.172;  -35.450; -260.000; -273.000
226.316; -113.425; -941.000; -902.000
226.460;  -71.575; -645.000; -493.000
226.604;  -56.275; -406.000; -400.000
226.748;  -99.025; -836.000; -733.000
226.892;  -36.050; -227.000; -181.000
227.036;  -47.675; -537.000; -447.000
227.180;  -63.500; -551.000; -375.000
227.324;  -55.750; -561.000; -580.000
227.468; -115.050; -819.000; -717.000
227.612;   17.850;  242.000;  -28.000
227.756;  -84.950; -845.000; -698.000
227.900;   47.300;  342.000;  441.000
228.044;  -55.675; -509.000; -290.000
228.188;   70.975;  448.000;  568.000
228.332;  -81.350; -546.000; -472.000
228.476;  -28.050; -223.000; -149.000
228.620;  -35.925; -210.000; -150.000
228.764;   69.700;  431.000;  349.000
228.908;  -21.050; -155.000;   30.000
229.052;  -51.300; -615.000; -528.000
229.195;  -19.375; -172.000;   13.000
229.339;  -30.175; -235.000; -305.000
229.483;  -30.400;    5.000; -162.000
229.627;   -6.575; -156.000;  139.000
229.771;  -51.375; -218.000; -294.000
229.915;   -1.400;  230.000;   79.000
230.059;  -86.775; -648.000; -663.000
230.202;  -37.850; -370.000; -317.000
230.346;  -15.425; -107.000;  107.000
230.490;  -47.850; -489.000; -521.000
230.634; -118.475; -736.000; -553.000
230.777;   77.050;  478.000;  509.000
230.921;  -72.500; -450.000; -359.000
231.065;  -37.400; -246.000; -286.000
231.209;   12.925;  261.000;  265.000
231.352;   17.825;   54.000;   40.000
231.496;   21.000;  568.000;  188.000
231.640;  -79.625; -693.000; -621.000
231.783;   52.500;  546.000;  525.000
231.927;  -41.850; -294.000; -365.000
232.071; -116.300; -962.000; -736.000
232.214; -104.575; -980.000; -764.000
232.358; -110.675; -683.000; -599.000
232.502;    5.875;  -19.000;    7.000
232.645; -132.100;-1090.000; -927.000
232.789;   -9.350; -257.000; -218.000
232.933;  -31.200; -407.000; -224.000
233.076; -118.800;-1038.000; -897.000
233.220; -115.600; -752.000; -777.000
233.363;  -65.975; -669.000; -477.000
233.507;   57.925;  371.000;  129.000
233.650;  -98.625; -764.000; -834.000
233.794;   49.125;  438.000;  461.000
233.938;  -60.925; -530.000; -362.000
234.081;  -29.600;  -93.000;   31.000
234.225;  -70.775; -631.000; -539.000
234.368; -115.225; -773.000; -723.000
234.512;  -34.625; -385.000; -299.000
234.655;  -90.050; -582.000; -555.000
234.798;  -67.100; -493.000; -466.000
234.942; -130.925; -884.000;-1002.000
235.085;  -78.650; -651.000; -443.000
235.229;  -74.825; -405.000; -410.000
235.372;  -53.475; -247.000; -191.000
235.516;  -77.475; -397.000; -321.000
235.659;   24.725;   92.000;  121.000
235.802;  -20.075;  -38.000;  -22.000
235.946;   26.575;  335.000;  215.000
236.089;   27.275;  126.000;  250.000
236.233;   42.250;  275.000;  298.000
236.376;  -39.300; -235.000; -378.000
236.519;  -47.425; -297.000; -319.000
236.663;  -23.175; -215.000; -117.000
236.806; -125.025;-1029.000; -999.000
236.949;   40.600;  543.000;  431.000
237.092;   60.000;  412.000;  391.000
237.236;  -82.225; -589.000; -502.000
237.379;   69.350;  352.000;  428.000
237.522; -124.950; -879.000; -768.000
237.666;  -20.025; -271.000;   18.000
237.809; -129.675; -851.000; -823.000
237.952;   49.375;  469.000;  271.000
238.095;  -61.200; -447.000; -442.000
238.238;   79.100;  688.000;  700.000
238.382;   -2.275;  166.000;  103.000
238.525;  -77.650; -598.000; -511.000
238.668; -132.575;-1060.000; -985.000
238.811;  -81.550; -638.000; -643.000
238.954;  -66.700; -483.000; -334.000
239.097;   80.600;  617.000;  664.000
239.241;   21.450;  394.000;  326.000
239.384;  -28.725; -254.000; -214.000
239.527;  -57.675; -424.000; -224.000
239.670; -141.800; -994.000;-1091.000
239.813; -107.775; -696.000; -658.000
239.956;   92.725;  579.000;  473.000
240.099; -115.375; -778.000; -725.000
240.242;   65.625;  428.000;  432.000
240.385;   31.600;  466.000;  450.000
240.528;  -70.850; -706.000; -473.000
240.671;    1.650;  189.000;  134.000
240.814;  -39.050; -441.000; -158.000
240.957; -105.825; -767.000; -578.000
241.100;  -92.075; -779.000; -755.000
241.243; -139.325;-1234.000; -893.000
241.386;  -62.875; -508.000; -379.000
241.529;  -82.600; -735.000; -547.000
241.672;  -63.550; -566.000; -495.000
241.815; -117.375; -832.000; -808.000
241.958;  -25.625; -125.000; -182.000
242.101;  -84.650; -545.000; -390.000
242.244;  -41.125; -270.000; -325.000
242.387;  -41.900; -304.000; -246.000
242.530;   54.275;  470.000;  134.000
242.673;  -50.275; -381.000; -309.000
242.815; -109.750; -925.000; -899.000
242.958;  -62.700; -482.000; -381.000
243.101;   -4.850;  132.000;  187.000
243.244;  -81.725; -564.000; -521.000
243.387;  -39.900; -313.000; -316.000
243.530;  -93.425; -657.000; -674.000
243.672;  -12.325;   43.000;  -92.000
243.815;  -61.425; -355.000; -283.000
243.958;   11.950;   98.000;  -26.000
244.101;    3.525;   59.000;  -16.000
244.243;  -10.675;  -47.000;  101.000
244.386; -108.875; -761.000; -630.000
244.529;  -31.300; -132.000; -139.000
244.672; -153.775;-1154.000; -951.000
244.814; -100.175; -621.000; -794.000
244.957;  -57.400; -380.000; -304.000
245.100;  -73.875; -489.000; -489.000
245.242;  -67.300; -387.000; -374.000
245.385;   -4.350;  -59.000;  -39.000
245.528; -107.825; -871.000; -705.000
245.670;   77.475;  612.000;  634.000
245.813;  -83.700; -599.000; -547.000
245.956;  -28.200; -324.000; -275.000
246.098;  -73.325; -508.000; -650.000
246.241;    3.375;  194.000;   48.000
246.383;  -21.175; -119.000;  -73.000
246.526;  -76.400; -454.000; -525.000
246.669; -130.125; -889.000; -780.000
246.811;   19.250;  172.000;   -1.000
246.954;  -72.525; -512.000; -426.000
247.096;  -14.025;  -84.000;   -6.000
247.239;  -72.050; -482.000; -445.000
247.381;  -67.600; -647.000; -488.000
247.524;   76.475;  645.000;  679.000
247.666;   -3.125;   58.000;   11.000
247.809; -114.100; -887.000; -691.000
247.951;   -9.450;  -75.000;  138.000
248.094;   18.400;  432.000;  308.000
248.236; -156.300;-1262.000;-1238.000
248.378;   17.425; -356.000;  -81.000
248.521;  -19.150; -334.000; -337.000
248.663;  -44.450; -236.000; -267.000
248.806;  -22.975; -300.000; -266.000
248.948; -100.800; -886.000; -763.000
249.090;  -50.775; -428.000; -398.000
249.233;  -46.300; -344.000; -381.000
249.375;  -72.475; -474.000; -451.000
249.518;  -21.925;  -83.000; -133.000
249.660;   -8.025; -103.000;    3.000
249.802; -171.350;-1303.000;-1189.000
249.945;  -76.825; -612.000; -540.000
250.087; -103.425; -834.000; -768.000
250.229;  -53.100; -362.000; -480.000
250.371;  -89.600; -494.000; -439.000
250.514;  -52.525; -310.000; -244.000
250.656;  -51.750;   69.000;  102.000
250.798; -118.425; -849.000; -800.000
250.940;  -65.600; -322.000; -322.000
251.083;  -23.875; -335.000; -111.000
251.225;   57.625;  338.000;  310.000
251.367;  -39.150; -274.000; -373.000
251.509;  -30.875; -265.000; -210.000
251.651;  -96.550; -731.000; -671.000
251.794;   59.850;  538.000;  632.000
251.936; -113.400; -821.000; -747.000
252.078;  -77.950; -540.000; -461.000
252.220;  -60.525; -645.000; -477.000
252.362;   69.025;  344.000;  462.000
252.504;  -72.925; -677.000; -584.000
252.646; -122.250; -875.000; -722.000
252.788;   -6.625;   14.000; -128.000
252.931;  -44.675; -257.000; -253.000
253.073;  -34.700; -376.000; -317.000
253.215;  -15.400;  141.000;  122.000
253.357;  -17.400;   82.000; -153.000
253.499;  -49.775; -374.000; -234.000
253.641;  -91.500; -749.000; -594.000
253.783;  -96.250; -609.000; -527.000
253.925;  -94.025; -586.000; -591.000
254.067;  -99.575; -744.000; -667.000
254.209;  -28.175; -391.000; -259.000
254.351; -132.650; -865.000; -883.000
254.493;  -67.250; -441.000; -417.000
254.635; -134.550; -936.000; -818.000
254.777;  -90.525; -752.000; -687.000
254.918;  -72.900; -512.000; -430.000
255.060;  -64.175; -551.000; -395.000
255.202;  -51.850; -473.000; -261.000
255.344;  -71.475; -658.000; -455.000
255.486;  -85.275; -471.000; -406.000
255.628; -102.175; -780.000; -781.000
255.770;  -93.425; -676.000; -536.000
255.912;  -70.550; -559.000; -468.000
256.053;  -83.050; -730.000; -508.000
256.195;  156.550; 1008.000;  903.000
256.337;  -96.725; -861.000; -595.000
256.479;   51.975;  532.000;  416.000
256.621;  -50.825; -394.000; -212.000
256.762;  -96.450; -789.000; -742.000
256.904;   44.500;  485.000;  487.000
257.046;  -50.050; -381.000; -271.000
257.188;  -51.325; -351.000; -264.000
257.329;  -75.725; -525.000; -464.000
257.471; -110.125; -939.000; -807.000
257.613;  -60.725; -584.000; -498.000
257.755; -154.275;-1073.000; -982.000
257.896;   40.225;  286.000;  392.000
258.038;  -71.300; -403.000; -352.000
258.180;  -44.425; -354.000; -279.000
258.321;  -94.925; -581.000; -457.000
258.463;   -2.325;  -71.000;  133.000
258.605;  -82.200; -562.000; -570.000
258.746; -103.175; -886.000; -772.000
258.888; -147.150;-1026.000;-1020.000
259.029;   25.125;  121.000;   -8.000
259.171;  -97.475; -614.000; -550.000
259.313;   -4.325;  -49.000;  -47.000
259.454;  -72.075; -536.000; -414.000
259.596;  -59.475; -483.000; -390.000
259.737;  -80.925; -590.000; -474.000
259.879;   38.875;  217.000;  311.000
260.020;   75.925;  901.000;  636.000
260.162;  -23.825; -146.000; -253.000
260.303; -106.425; -768.000; -687.000
260.445;  -76.925; -609.000; -613.000
260.586;   31.075;  392.000;  157.000
260.728;  -41.100; -360.000; -248.000
260.869; -118.150; -350.000; -343.000
261.011;   89.250;  706.000;  537.000
261.152;  -64.225; -479.000; -319.000
261.293;  -84.600; -576.000; -595.000
261.435;  -24.850; -219.000; -184.000
261.576;  -43.175; -455.000; -325.000
261.718;   42.725;  420.000;  470.000
261.859; -122.450; -940.000; -949.000
262.000; -135.925; -951.000;-1016.000
262.142;  -22.275;  -52.000;  -60.000
262.283; -117.550; -808.000; -691.000
262.424;  -93.925; -666.000; -625.000
262.566; -149.050;-1161.000; -983.000
262.707; -116.450; -840.000; -830.000
262.848; -117.000; -769.000; -726.000
262.990;  -52.300; -362.000; -345.000
263.131;   77.700;  650.000;  681.000
263.272;   -9.850;  -61.000;  -41.000
263.413;  -91.300; -589.000; -561.000
263.555;  -69.850; -669.000; -143.000
263.696;  -89.250; -550.000; -641.000
263.837;  -59.175; -449.000; -551.000
263.978;  -15.575;   -5.000;  -77.000
264.119;  -34.575; -283.000; -264.000
264.261; -120.825; -847.000; -630.000
264.402;   -2.650;   33.000;   40.000
264.543;  -73.250; -509.000; -524.000
264.684;  -17.950;   61.000;  -50.000
264.825;  -69.175; -816.000; -538.000
264.966;   -0.750;  -84.000;  -67.000
265.107; -102.950; -646.000; -670.000
265.248; -120.600; -825.000; -812.000
265.390;  -12.400;  152.000;   -9.000
265.531;  -28.450; -238.000; -107.000
265.672;  -91.125; -557.000; -630.000
265.813;   59.150;  563.000;  439.000
265.954; -148.475; -959.000; -940.000
266.095;  -12.400; -372.000; -322.000
266.236;  -81.500; -686.000; -548.000
266.377;  -41.000; -243.000; -297.000
266.518;  -72.900; -619.000; -547.000
266.659;   21.400;  170.000;  268.000
266.800;   15.650;   83.000;   85.000
266.941;  -87.925; -487.000; -478.000
267.082;    0.625;  354.000;   99.000
267.223;  -45.125; -344.000; -273.000
267.364; -115.000; -892.000; -686.000
267.504;  -26.725;    3.000;  135.000
267.645;  -20.625;  160.000;   67.000
267.786;  -40.925; -147.000;  -86.000
267.927;  -67.175; -473.000; -379.000
268.068;  -20.150; -186.000;  -61.000
268.209;  -62.750; -175.000; -413.000
268.350;  -55.825; -388.000; -532.000
268.490;  -87.350; -648.000; -521.000
268.631;   18.150;  127.000;  225.000
268.772; -113.125; -874.000; -647.000
268.913;  -58.650; -328.000; -476.000
269.054;  -22.525; -117.000;   12.000
269.194;  -49.125; -418.000; -402.000
269.335; -163.300;-1137.000;-1074.000
269.476;  -24.525;   33.000;  -35.000
269.617;  -48.700; -347.000; -392.000
269.757;  -86.250; -713.000; -646.000
269.898; -112.350; -856.000; -613.000
270.039;  -66.925; -415.000; -405.000
270.180; -140.675; -952.000; -816.000
270.320;  -25.125; -190.000; -250.000
