
Integration time [ms]: 100.000
Averaging Nr. [scans]: 40
Smoothing Nr. [pixels]: 0
Data measured with spectrometer [name]: 2101012U2
Wave   ;Sample   ;Dark     ;Reference
[nm]   ;[counts] ;[counts] ;[counts] 

197.733;   51.725;  516.000;  404.000
197.879;  -80.325; -610.000; -634.000
198.025;  -44.125; -475.000; -420.000
198.171;  -80.250; -602.000; -612.000
198.317;  -15.175; -401.000; -316.000
198.463;  -66.775; -655.000; -404.000
198.609;   31.125;  181.000; -137.000
198.755;  -89.500; -644.000; -410.000
198.901;  -66.600; -505.000; -424.000
199.047;  -61.775; -615.000; -488.000
199.193;  -29.250; -230.000; -468.000
199.339;  -54.875; -222.000; -369.000
199.485;   53.525;  330.000;  271.000
199.631;   30.875;  227.000;  310.000
199.777;  -46.700; -466.000; -398.000
199.923;  -71.575; -610.000; -424.000
200.069;    2.025; -141.000;  -58.000
200.215;   68.175;  128.000;  453.000
200.361;   41.150;  243.000;  477.000
200.507;  -66.900; -600.000; -373.000
200.653;  -23.725; -371.000; -194.000
200.798;  -32.275; -215.000; -125.000
200.944;    2.525; -146.000;  -41.000
201.090;   34.000;   61.000;  222.000
201.236;   -2.125; -116.000; -158.000
201.382;  133.600;  874.000;  903.000
201.528;    8.625;  -58.000;  -48.000
201.674;  -26.475; -386.000; -293.000
201.819;  -51.850; -540.000; -439.000
201.965;  -85.950; -699.000; -447.000
202.111;  -19.250; -273.000; -226.000
202.257;  -37.525; -250.000; -238.000
202.402;   15.325;   13.000;  -36.000
202.548;  -35.150; -169.000; -116.000
202.694;   88.625;  410.000; -183.000
202.840;  -83.800; -603.000; -531.000
202.985;  -61.750; -681.000; -639.000
203.131; -108.375; -832.000; -666.000
203.277;  -24.175; -199.000; -262.000
203.423;  -47.100; -434.000; -520.000
203.568;  -29.850; -462.000; -237.000
203.714;  -65.950; -535.000; -542.000
203.860;  -92.825; -682.000; -641.000
204.005;    4.150;  112.000;  167.000
204.151;   77.400;  561.000;  556.000
204.296;  -40.550; -354.000; -221.000
204.442;  -64.875; -600.000; -547.000
204.588;  -71.850; -592.000; -579.000
204.733;   16.600;  178.000;  168.000
204.879; -138.175;-1018.000; -822.000
205.025;   15.925;  -99.000;  126.000
205.170;    3.300;  -17.000;   94.000
205.316;   87.950;  438.000;  661.000
205.461;  -81.650; -698.000; -554.000
205.607;   82.850;  609.000;  665.000
205.752;  -64.825; -626.000; -551.000
205.898;  -49.025; -501.000; -391.000
206.043;  -64.450; -578.000; -506.000
206.189;  -32.375; -243.000; -285.000
206.334;   70.575;  554.000;  606.000
206.480;   76.850;  409.000;  239.000
206.625;  -92.325; -529.000; -552.000
206.771;  -36.300; -451.000; -373.000
206.916;  -27.350; -210.000; -537.000
207.062;  -55.800; -545.000; -591.000
207.207;  -64.625; -546.000; -443.000
207.353;   56.225;  185.000;  460.000
207.498;   16.000;  196.000;   85.000
207.643;  -44.200; -501.000; -370.000
207.789; -127.075;-1069.000; -910.000
207.934;  -80.925; -665.000; -713.000
208.080;  -16.775; -154.000;   66.000
208.225;   -6.150;  -22.000;  -57.000
208.370;  -81.175; -727.000; -619.000
208.516;  -78.900; -741.000; -487.000
208.661;  -38.450; -127.000;  -69.000
208.806;  -14.875; -165.000; -171.000
208.952; -129.150;-1044.000; -731.000
209.097;   85.100;  378.000;  349.000
209.242;  -41.375; -307.000; -382.000
209.387;   76.775;  392.000;  350.000
209.533;  -71.775; -321.000; -350.000
209.678;   88.875;  472.000;  543.000
209.823;  -57.425; -408.000; -310.000
209.969; -101.450; -860.000; -757.000
210.114; -109.975; -907.000; -719.000
210.259; -114.800; -939.000; -889.000
210.404;   -8.900; -171.000;  103.000
210.549;   27.400;  108.000;    3.000
210.695;  -13.825;   -3.000;  -95.000
210.840;   37.950;   94.000;   67.000
210.985;  -58.775; -484.000; -303.000
211.130;   88.100;  268.000;  406.000
211.275;   21.700;  207.000;  199.000
211.420;  -54.550; -300.000; -289.000
211.566;  -69.925; -536.000; -489.000
211.711;   28.350;  218.000;  157.000
211.856;  -67.925; -545.000; -519.000
212.001;   22.125;  151.000;   44.000
212.146;   36.675;  153.000;   49.000
212.291;  -23.875; -210.000; -186.000
212.436;  -27.575; -280.000;   -6.000
212.581;  -83.000; -685.000; -653.000
212.726;  -62.700; -487.000; -538.000
212.871;  -45.675; -552.000; -217.000
213.016; -163.025;-1172.000;-1029.000
213.161;   75.250;  406.000;  291.000
213.306;  -68.525; -435.000; -577.000
213.451;  -92.500; -778.000; -689.000
213.596;  -49.775; -455.000; -347.000
213.741;  -56.150; -448.000; -538.000
213.886;  -71.050; -498.000; -517.000
214.031;   -9.025; -294.000; -124.000
214.176;  -49.050; -408.000; -341.000
214.321;  -14.700; -296.000; -157.000
214.466;  -11.775; -163.000;  -43.000
214.611;    3.700;  -61.000;  -10.000
214.756; -120.650; -948.000; -858.000
214.901;   -9.175; -388.000; -226.000
215.046; -128.100; -797.000; -825.000
215.191;   28.875;  128.000;   35.000
215.336;  -26.350; -157.000;  -19.000
215.480;  -60.075; -684.000; -505.000
215.625;   -9.975; -175.000;  -19.000
215.770;  -86.550; -757.000; -662.000
215.915;   -3.200;   -5.000;  -97.000
216.060;    3.725; -113.000;  -21.000
216.205; -102.150; -731.000; -779.000
216.349;  -61.525; -470.000; -533.000
216.494; -125.975; -939.000; -867.000
216.639; -100.050; -823.000; -888.000
216.784;  -91.650; -577.000; -525.000
216.929;   46.000;  392.000;  281.000
217.073;   -7.075; -244.000;  -31.000
217.218;    6.375;   78.000;  -47.000
217.363;  -91.275; -656.000; -618.000
217.507;  -60.525; -623.000; -588.000
217.652; -121.325; -845.000; -874.000
217.797;  -82.125; -708.000; -659.000
217.942; -117.125; -856.000; -720.000
218.086;   82.675;  608.000;  539.000
218.231;  -11.925; -174.000;  -26.000
218.376;  -43.250; -337.000; -229.000
218.520;    8.600;  -41.000;   96.000
218.665;  -16.250; -338.000; -204.000
218.810;  -45.275; -275.000; -233.000
218.954;   13.025;  201.000;   35.000
219.099; -112.450; -713.000; -963.000
219.243;  -48.875; -589.000; -554.000
219.388;  -28.475; -264.000; -136.000
219.532;  -19.650; -116.000; -116.000
219.677;  -74.775; -564.000; -521.000
219.822;   19.125;   33.000;   89.000
219.966;   -0.350;   17.000;  -99.000
220.111;  -22.100; -328.000;  -40.000
220.255; -101.700; -797.000; -750.000
220.400;  -23.500; -180.000; -146.000
220.544;  -63.750; -516.000; -450.000
220.689;  -47.275; -422.000; -451.000
220.833;  -22.875; -123.000;  -58.000
220.978;  -55.275; -393.000; -563.000
221.122;   36.425;  319.000;  307.000
221.267; -100.075; -906.000; -837.000
221.411;  -67.625; -478.000; -394.000
221.555;    1.700; -104.000;  -23.000
221.700;  -51.200; -329.000; -222.000
221.844;   39.500;  255.000;  272.000
221.989;  -50.400; -328.000; -311.000
222.133;  -38.800; -289.000; -307.000
222.277;    7.775;    5.000;   78.000
222.422;   18.075;  227.000;  113.000
222.566;  -36.825; -381.000; -214.000
222.711;  -47.575; -414.000; -479.000
222.855;  -70.475; -643.000; -586.000
222.999;  -85.025; -642.000; -717.000
223.144;  -25.925; -195.000; -194.000
223.288;   49.850;  423.000;  251.000
223.432;   26.350;  184.000;  230.000
223.576;   18.425;  152.000;  -21.000
223.721;   37.875;  364.000;  273.000
223.865;  -57.250; -472.000; -475.000
224.009;  231.950; 1673.000; 1631.000
224.153;  -83.400; -660.000; -671.000
224.298;  -66.075; -531.000; -489.000
224.442;   -7.725;  -74.000;  -33.000
224.586;  -13.125; -169.000; -106.000
224.730;  -95.900; -858.000; -670.000
224.875; -107.550; -739.000; -688.000
225.019;   13.750;  102.000;  188.000
225.163;   65.025;  208.000;  341.000
225.307;   22.025;   97.000;  -91.000
225.451;   32.050;  360.000;  481.000
225.595;   45.750;  264.000;  176.000
225.739;  -20.100; -170.000;  -94.000
225.884;    7.775;   86.000;    5.000
226.028; -100.425; -760.000; -626.000
226.172;  -36.425; -260.000; -273.000
226.316; -120.375; -941.000; -902.000
226.460;  -63.650; -645.000; -493.000
226.604;  -54.200; -406.000; -400.000
226.748;  -94.925; -836.000; -733.000
226.892;  -33.600; -227.000; -181.000
227.036;  -47.225; -537.000; -447.000
227.180;  -63.550; -551.000; -375.000
227.324;  -75.450; -561.000; -580.000
227.468; -110.500; -819.000; -717.000
227.612;   25.800;  242.000;  -28.000
227.756; -111.650; -845.000; -698.000
227.900;   53.950;  342.000;  441.000
228.044;  -56.850; -509.000; -290.000
228.188;   55.500;  448.000;  568.000
228.332;  -85.950; -546.000; -472.000
228.476;  -22.000; -223.000; -149.000
228.620;  -29.975; -210.000; -150.000
228.764;   72.750;  431.000;  349.000
228.908;  -16.950; -155.000;   30.000
229.052;  -62.500; -615.000; -528.000
229.195;  -15.000; -172.000;   13.000
229.339;  -14.050; -235.000; -305.000
229.483;  -43.075;    5.000; -162.000
229.627;    1.600; -156.000;  139.000
229.771;  -58.600; -218.000; -294.000
229.915;   17.025;  230.000;   79.000
230.059;  -87.525; -648.000; -663.000
230.202;  -42.700; -370.000; -317.000
230.346;   -7.400; -107.000;  107.000
230.490;  -73.275; -489.000; -521.000
230.634; -109.150; -736.000; -553.000
230.777;   85.225;  478.000;  509.000
230.921;  -52.725; -450.000; -359.000
231.065;  -31.825; -246.000; -286.000
231.209;   26.575;  261.000;  265.000
231.352;   22.675;   54.000;   40.000
231.496;   17.175;  568.000;  188.000
231.640;  -81.475; -693.000; -621.000
231.783;   52.650;  546.000;  525.000
231.927;  -44.925; -294.000; -365.000
232.071; -111.425; -962.000; -736.000
232.214; -111.550; -980.000; -764.000
232.358;  -93.675; -683.000; -599.000
232.502;   11.675;  -19.000;    7.000
232.645; -132.400;-1090.000; -927.000
232.789;  -25.325; -257.000; -218.000
232.933;  -40.275; -407.000; -224.000
233.076; -131.725;-1038.000; -897.000
233.220; -112.950; -752.000; -777.000
233.363;  -61.275; -669.000; -477.000
233.507;   66.900;  371.000;  129.000
233.650;  -92.075; -764.000; -834.000
233.794;   53.625;  438.000;  461.000
233.938;  -58.250; -530.000; -362.000
234.081;  -21.675;  -93.000;   31.000
234.225;  -62.150; -631.000; -539.000
234.368; -110.675; -773.000; -723.000
234.512;  -37.825; -385.000; -299.000
234.655;  -90.675; -582.000; -555.000
234.798;  -53.325; -493.000; -466.000
234.942; -135.800; -884.000;-1002.000
235.085;  -77.375; -651.000; -443.000
235.229;  -74.125; -405.000; -410.000
235.372;  -40.375; -247.000; -191.000
235.516;  -70.125; -397.000; -321.000
235.659;   26.375;   92.000;  121.000
235.802;   -3.225;  -38.000;  -22.000
235.946;   34.525;  335.000;  215.000
236.089;   21.975;  126.000;  250.000
236.233;   44.100;  275.000;  298.000
236.376;  -45.500; -235.000; -378.000
236.519;  -38.675; -297.000; -319.000
236.663;  -34.350; -215.000; -117.000
236.806; -139.150;-1029.000; -999.000
236.949;   79.725;  543.000;  431.000
237.092;   69.425;  412.000;  391.000
237.236;  -78.275; -589.000; -502.000
237.379;   56.700;  352.000;  428.000
237.522; -117.500; -879.000; -768.000
237.666;   -7.325; -271.000;   18.000
237.809; -119.150; -851.000; -823.000
237.952;   40.475;  469.000;  271.000
238.095;  -71.750; -447.000; -442.000
238.238;   89.775;  688.000;  700.000
238.382;   -1.875;  166.000;  103.000
238.525;  -66.500; -598.000; -511.000
238.668; -141.875;-1060.000; -985.000
238.811;  -83.475; -638.000; -643.000
238.954;  -56.225; -483.000; -334.000
239.097;   97.925;  617.000;  664.000
239.241;   17.075;  394.000;  326.000
239.384;  -32.250; -254.000; -214.000
239.527;  -62.500; -424.000; -224.000
239.670; -152.925; -994.000;-1091.000
239.813; -119.525; -696.000; -658.000
239.956;   79.525;  579.000;  473.000
240.099; -114.325; -778.000; -725.000
240.242;   71.850;  428.000;  432.000
240.385;   53.100;  466.000;  450.000
240.528;  -51.850; -706.000; -473.000
240.671;   15.350;  189.000;  134.000
240.814;  -40.825; -441.000; -158.000
240.957;  -95.525; -767.000; -578.000
241.100;  -87.600; -779.000; -755.000
241.243; -145.150;-1234.000; -893.000
241.386;  -65.900; -508.000; -379.000
241.529;  -96.375; -735.000; -547.000
241.672;  -62.125; -566.000; -495.000
241.815; -119.875; -832.000; -808.000
241.958;  -24.875; -125.000; -182.000
242.101;  -80.000; -545.000; -390.000
242.244;  -30.925; -270.000; -325.000
242.387;  -30.225; -304.000; -246.000
242.530;   54.100;  470.000;  134.000
242.673;  -50.300; -381.000; -309.000
242.815; -111.575; -925.000; -899.000
242.958;  -68.150; -482.000; -381.000
243.101;   25.900;  132.000;  187.000
243.244;  -88.875; -564.000; -521.000
243.387;  -43.850; -313.000; -316.000
243.530;  -95.850; -657.000; -674.000
243.672;    7.750;   43.000;  -92.000
243.815;  -49.375; -355.000; -283.000
243.958;    9.200;   98.000;  -26.000
244.101;   -7.850;   59.000;  -16.000
244.243;  -10.375;  -47.000;  101.000
244.386; -115.600; -761.000; -630.000
244.529;  -20.250; -132.000; -139.000
244.672; -161.200;-1154.000; -951.000
244.814;  -86.350; -621.000; -794.000
244.957;  -62.950; -380.000; -304.000
245.100;  -70.625; -489.000; -489.000
245.242;  -57.400; -387.000; -374.000
245.385;   -2.075;  -59.000;  -39.000
245.528; -119.875; -871.000; -705.000
245.670;   93.775;  612.000;  634.000
245.813;  -86.550; -599.000; -547.000
245.956;  -40.825; -324.000; -275.000
246.098;  -61.025; -508.000; -650.000
246.241;   10.275;  194.000;   48.000
246.383;  -21.575; -119.000;  -73.000
246.526;  -85.125; -454.000; -525.000
246.669; -115.475; -889.000; -780.000
246.811;   17.900;  172.000;   -1.000
246.954;  -67.150; -512.000; -426.000
247.096;  -10.975;  -84.000;   -6.000
247.239;  -75.475; -482.000; -445.000
247.381;  -70.425; -647.000; -488.000
247.524;   77.475;  645.000;  679.000
247.666;   -6.925;   58.000;   11.000
247.809; -120.400; -887.000; -691.000
247.951;  -10.425;  -75.000;  138.000
248.094;   17.725;  432.000;  308.000
248.236; -152.800;-1262.000;-1238.000
248.378;   15.475; -356.000;  -81.000
248.521;   -9.050; -334.000; -337.000
248.663;  -46.475; -236.000; -267.000
248.806;  -17.350; -300.000; -266.000
248.948;  -94.500; -886.000; -763.000
249.090;  -48.475; -428.000; -398.000
249.233;  -51.025; -344.000; -381.000
249.375;  -55.800; -474.000; -451.000
249.518;   -6.475;  -83.000; -133.000
249.660;   21.775; -103.000;    3.000
249.802; -168.925;-1303.000;-1189.000
249.945;  -72.600; -612.000; -540.000
250.087; -111.250; -834.000; -768.000
250.229;  -39.625; -362.000; -480.000
250.371;  -71.000; -494.000; -439.000
250.514;  -41.350; -310.000; -244.000
250.656;  -75.125;   69.000;  102.000
250.798; -113.725; -849.000; -800.000
250.940;  -74.000; -322.000; -322.000
251.083;  -18.675; -335.000; -111.000
251.225;   57.775;  338.000;  310.000
251.367;  -39.175; -274.000; -373.000
251.509;  -28.525; -265.000; -210.000
251.651;  -91.000; -731.000; -671.000
251.794;   55.650;  538.000;  632.000
251.936;  -92.650; -821.000; -747.000
252.078;  -72.425; -540.000; -461.000
252.220;  -65.325; -645.000; -477.000
252.362;   88.550;  344.000;  462.000
252.504;  -68.575; -677.000; -584.000
252.646; -107.275; -875.000; -722.000
252.788;    6.625;   14.000; -128.000
252.931;  -31.150; -257.000; -253.000
253.073;  -44.450; -376.000; -317.000
253.215;   -6.750;  141.000;  122.000
253.357;   -7.925;   82.000; -153.000
253.499;  -54.975; -374.000; -234.000
253.641;  -84.575; -749.000; -594.000
253.783;  -92.125; -609.000; -527.000
253.925;  -82.900; -586.000; -591.000
254.067; -118.975; -744.000; -667.000
254.209;  -28.975; -391.000; -259.000
254.351; -122.275; -865.000; -883.000
254.493;  -52.100; -441.000; -417.000
254.635; -136.325; -936.000; -818.000
254.777;  -81.950; -752.000; -687.000
254.918;  -69.650; -512.000; -430.000
255.060;  -53.150; -551.000; -395.000
255.202;  -66.950; -473.000; -261.000
255.344;  -73.650; -658.000; -455.000
255.486;  -74.725; -471.000; -406.000
255.628; -121.075; -780.000; -781.000
255.770;  -87.825; -676.000; -536.000
255.912;  -44.550; -559.000; -468.000
256.053;  -91.000; -730.000; -508.000
256.195;  153.850; 1008.000;  903.000
256.337;  -98.050; -861.000; -595.000
256.479;   75.100;  532.000;  416.000
256.621;  -35.450; -394.000; -212.000
256.762;  -98.450; -789.000; -742.000
256.904;   42.575;  485.000;  487.000
257.046;  -58.500; -381.000; -271.000
257.188;  -47.625; -351.000; -264.000
257.329;  -71.725; -525.000; -464.000
257.471; -122.050; -939.000; -807.000
257.613;  -48.650; -584.000; -498.000
257.755; -146.125;-1073.000; -982.000
257.896;   36.650;  286.000;  392.000
258.038;  -66.675; -403.000; -352.000
258.180;  -43.350; -354.000; -279.000
258.321;  -84.625; -581.000; -457.000
258.463;   -4.825;  -71.000;  133.000
258.605;  -83.750; -562.000; -570.000
258.746;  -96.900; -886.000; -772.000
258.888; -147.900;-1026.000;-1020.000
259.029;   26.050;  121.000;   -8.000
259.171;  -84.100; -614.000; -550.000
259.313;  -16.350;  -49.000;  -47.000
259.454;  -77.225; -536.000; -414.000
259.596;  -54.425; -483.000; -390.000
259.737;  -71.575; -590.000; -474.000
259.879;   39.125;  217.000;  311.000
260.020;   97.550;  901.000;  636.000
260.162;  -16.625; -146.000; -253.000
260.303; -112.100; -768.000; -687.000
260.445;  -87.425; -609.000; -613.000
260.586;   35.425;  392.000;  157.000
260.728;  -49.850; -360.000; -248.000
260.869;  -68.025; -350.000; -343.000
261.011;   78.675;  706.000;  537.000
261.152;  -60.350; -479.000; -319.000
261.293;  -59.650; -576.000; -595.000
261.435;  -43.500; -219.000; -184.000
261.576;  -55.775; -455.000; -325.000
261.718;   55.625;  420.000;  470.000
261.859; -121.000; -940.000; -949.000
262.000; -134.000; -951.000;-1016.000
262.142;  -28.125;  -52.000;  -60.000
262.283; -119.625; -808.000; -691.000
262.424;  -85.075; -666.000; -625.000
262.566; -151.750;-1161.000; -983.000
262.707;  -95.950; -840.000; -830.000
262.848; -129.950; -769.000; -726.000
262.990;  -39.475; -362.000; -345.000
263.131;   74.650;  650.000;  681.000
263.272;   -4.175;  -61.000;  -41.000
263.413;  -97.250; -589.000; -561.000
263.555;  -63.450; -669.000; -143.000
263.696;  -86.725; -550.000; -641.000
263.837;  -68.775; -449.000; -551.000
263.978;   -3.725;   -5.000;  -77.000
264.119;  -37.375; -283.000; -264.000
264.261; -119.025; -847.000; -630.000
264.402;    0.000;   33.000;   40.000
264.543;  -80.550; -509.000; -524.000
264.684;  -15.400;   61.000;  -50.000
264.825;  -91.950; -816.000; -538.000
264.966;   -9.075;  -84.000;  -67.000
265.107; -119.050; -646.000; -670.000
265.248; -108.925; -825.000; -812.000
265.390;    5.800;  152.000;   -9.000
265.531;  -24.000; -238.000; -107.000
265.672;  -80.500; -557.000; -630.000
265.813;   66.400;  563.000;  439.000
265.954; -147.650; -959.000; -940.000
266.095;  -15.050; -372.000; -322.000
266.236; -100.025; -686.000; -548.000
266.377;  -33.800; -243.000; -297.000
266.518;  -83.300; -619.000; -547.000
266.659;   27.325;  170.000;  268.000
266.800;    1.925;   83.000;   85.000
266.941;  -71.150; -487.000; -478.000
267.082;   36.400;  354.000;   99.000
267.223;  -53.275; -344.000; -273.000
267.364; -130.025; -892.000; -686.000
267.504;    6.700;    3.000;  135.000
267.645;    7.100;  160.000;   67.000
267.786;  -16.100; -147.000;  -86.000
267.927;  -68.125; -473.000; -379.000
268.068;   -3.150; -186.000;  -61.000
268.209;  -48.425; -175.000; -413.000
268.350;  -67.550; -388.000; -532.000
268.490;  -93.000; -648.000; -521.000
268.631;   37.775;  127.000;  225.000
268.772; -108.500; -874.000; -647.000
268.913;  -52.275; -328.000; -476.000
269.054;   -9.875; -117.000;   12.000
269.194;  -54.675; -418.000; -402.000
269.335; -153.300;-1137.000;-1074.000
269.476;  -11.675;   33.000;  -35.000
269.617;  -45.875; -347.000; -392.000
269.757;  -89.425; -713.000; -646.000
269.898;  -98.150; -856.000; -613.000
270.039;  -61.825; -415.000; -405.000
270.180; -124.700; -952.000; -816.000
270.320;  -21.825; -190.000; -250.000
