
Integration time [ms]: 100.000
Averaging Nr. [scans]: 40
Smoothing Nr. [pixels]: 0
Data measured with spectrometer [name]: 2101012U2
Wave   ;Sample   ;Dark     ;Reference
[nm]   ;[counts] ;[counts] ;[counts] 

197.733;   62.750;  516.000;  404.000
197.879; -102.375; -610.000; -634.000
198.025;  -49.825; -475.000; -420.000
198.171;  -63.150; -602.000; -612.000
198.317;  -33.625; -401.000; -316.000
198.463;  -62.600; -655.000; -404.000
198.609;   39.650;  181.000; -137.000
198.755;  -86.075; -644.000; -410.000
198.901;  -65.600; -505.000; -424.000
199.047;  -65.750; -615.000; -488.000
199.193;  -39.975; -230.000; -468.000
199.339;  -44.400; -222.000; -369.000
199.485;   44.150;  330.000;  271.000
199.631;    5.950;  227.000;  310.000
199.777;  -48.025; -466.000; -398.000
199.923;  -64.800; -610.000; -424.000
200.069;   -6.225; -141.000;  -58.000
200.215;   50.750;  128.000;  453.000
200.361;   44.625;  243.000;  477.000
200.507;  -74.250; -600.000; -373.000
200.653;  -26.450; -371.000; -194.000
200.798;  -39.450; -215.000; -125.000
200.944;   -7.300; -146.000;  -41.000
201.090;   43.775;   61.000;  222.000
201.236;   -9.575; -116.000; -158.000
201.382;  118.525;  874.000;  903.000
201.528;   12.250;  -58.000;  -48.000
201.674;  -52.950; -386.000; -293.000
201.819;  -66.600; -540.000; -439.000
201.965;  -81.725; -699.000; -447.000
202.111;  -24.850; -273.000; -226.000
202.257;  -35.875; -250.000; -238.000
202.402;    8.750;   13.000;  -36.000
202.548;  -15.975; -169.000; -116.000
202.694;   76.100;  410.000; -183.000
202.840;  -85.650; -603.000; -531.000
202.985;  -74.125; -681.000; -639.000
203.131; -106.075; -832.000; -666.000
203.277;  -16.325; -199.000; -262.000
203.423;  -60.150; -434.000; -520.000
203.568;  -43.525; -462.000; -237.000
203.714;  -61.950; -535.000; -542.000
203.860;  -88.800; -682.000; -641.000
204.005;   30.850;  112.000;  167.000
204.151;   83.350;  561.000;  556.000
204.296;  -54.900; -354.000; -221.000
204.442;  -68.675; -600.000; -547.000
204.588;  -88.850; -592.000; -579.000
204.733;   26.575;  178.000;  168.000
204.879; -125.150;-1018.000; -822.000
205.025;    6.825;  -99.000;  126.000
205.170;   -4.750;  -17.000;   94.000
205.316;   85.000;  438.000;  661.000
205.461;  -84.750; -698.000; -554.000
205.607;   84.925;  609.000;  665.000
205.752;  -80.700; -626.000; -551.000
205.898;  -62.275; -501.000; -391.000
206.043;  -75.975; -578.000; -506.000
206.189;  -45.750; -243.000; -285.000
206.334;   74.350;  554.000;  606.000
206.480;   79.125;  409.000;  239.000
206.625;  -95.950; -529.000; -552.000
206.771;  -42.900; -451.000; -373.000
206.916;  -46.150; -210.000; -537.000
207.062;  -70.050; -545.000; -591.000
207.207;  -76.900; -546.000; -443.000
207.353;   43.700;  185.000;  460.000
207.498;   17.025;  196.000;   85.000
207.643;  -61.225; -501.000; -370.000
207.789; -144.625;-1069.000; -910.000
207.934;  -99.075; -665.000; -713.000
208.080;  -28.250; -154.000;   66.000
208.225;   -3.075;  -22.000;  -57.000
208.370;  -89.000; -727.000; -619.000
208.516;  -80.650; -741.000; -487.000
208.661;  -33.700; -127.000;  -69.000
208.806;  -15.875; -165.000; -171.000
208.952; -132.475;-1044.000; -731.000
209.097;   70.875;  378.000;  349.000
209.242;  -48.275; -307.000; -382.000
209.387;   57.400;  392.000;  350.000
209.533;  -57.800; -321.000; -350.000
209.678;   87.050;  472.000;  543.000
209.823;  -53.575; -408.000; -310.000
209.969; -113.050; -860.000; -757.000
210.114; -110.000; -907.000; -719.000
210.259; -122.250; -939.000; -889.000
210.404;  -10.125; -171.000;  103.000
210.549;   10.000;  108.000;    3.000
210.695;  -21.900;   -3.000;  -95.000
210.840;   33.425;   94.000;   67.000
210.985;  -67.300; -484.000; -303.000
211.130;   68.750;  268.000;  406.000
211.275;   13.800;  207.000;  199.000
211.420;  -44.450; -300.000; -289.000
211.566;  -76.100; -536.000; -489.000
211.711;   30.200;  218.000;  157.000
211.856;  -72.700; -545.000; -519.000
212.001;    5.475;  151.000;   44.000
212.146;   24.800;  153.000;   49.000
212.291;  -16.475; -210.000; -186.000
212.436;  -37.975; -280.000;   -6.000
212.581;  -83.325; -685.000; -653.000
212.726;  -79.150; -487.000; -538.000
212.871;  -51.475; -552.000; -217.000
213.016; -161.600;-1172.000;-1029.000
213.161;   57.850;  406.000;  291.000
213.306;  -71.375; -435.000; -577.000
213.451; -102.125; -778.000; -689.000
213.596;  -55.150; -455.000; -347.000
213.741;  -59.000; -448.000; -538.000
213.886;  -75.225; -498.000; -517.000
214.031;  -17.950; -294.000; -124.000
214.176;  -65.875; -408.000; -341.000
214.321;  -32.500; -296.000; -157.000
214.466;  -19.950; -163.000;  -43.000
214.611;    1.300;  -61.000;  -10.000
214.756; -122.125; -948.000; -858.000
214.901;  -31.650; -388.000; -226.000
215.046; -133.975; -797.000; -825.000
215.191;   25.725;  128.000;   35.000
215.336;  -11.225; -157.000;  -19.000
215.480;  -70.625; -684.000; -505.000
215.625;   -9.825; -175.000;  -19.000
215.770;  -80.175; -757.000; -662.000
215.915;   -1.850;   -5.000;  -97.000
216.060;   18.550; -113.000;  -21.000
216.205; -110.950; -731.000; -779.000
216.349;  -77.550; -470.000; -533.000
216.494; -136.475; -939.000; -867.000
216.639; -122.375; -823.000; -888.000
216.784;  -93.975; -577.000; -525.000
216.929;   65.475;  392.000;  281.000
217.073;   -0.675; -244.000;  -31.000
217.218;    2.050;   78.000;  -47.000
217.363;  -95.100; -656.000; -618.000
217.507;  -84.375; -623.000; -588.000
217.652; -134.525; -845.000; -874.000
217.797;  -93.025; -708.000; -659.000
217.942; -119.050; -856.000; -720.000
218.086;   74.800;  608.000;  539.000
218.231;  -22.700; -174.000;  -26.000
218.376;  -34.350; -337.000; -229.000
218.520;   -2.700;  -41.000;   96.000
218.665;  -43.800; -338.000; -204.000
218.810;  -49.625; -275.000; -233.000
218.954;   20.550;  201.000;   35.000
219.099; -121.550; -713.000; -963.000
219.243;  -72.825; -589.000; -554.000
219.388;  -44.300; -264.000; -136.000
219.532;  -10.650; -116.000; -116.000
219.677;  -81.450; -564.000; -521.000
219.822;    2.225;   33.000;   89.000
219.966;    4.800;   17.000;  -99.000
220.111;  -35.100; -328.000;  -40.000
220.255;  -86.625; -797.000; -750.000
220.400;  -22.025; -180.000; -146.000
220.544;  -76.550; -516.000; -450.000
220.689;  -56.550; -422.000; -451.000
220.833;  -24.650; -123.000;  -58.000
220.978;  -41.325; -393.000; -563.000
221.122;    0.100;  319.000;  307.000
221.267; -112.325; -906.000; -837.000
221.411;  -75.900; -478.000; -394.000
221.555;   -4.650; -104.000;  -23.000
221.700;  -47.475; -329.000; -222.000
221.844;   44.150;  255.000;  272.000
221.989;  -61.800; -328.000; -311.000
222.133;  -47.350; -289.000; -307.000
222.277;  -13.225;    5.000;   78.000
222.422;   15.300;  227.000;  113.000
222.566;  -28.275; -381.000; -214.000
222.711;  -54.950; -414.000; -479.000
222.855;  -78.000; -643.000; -586.000
222.999;  -97.275; -642.000; -717.000
223.144;  -25.225; -195.000; -194.000
223.288;   55.050;  423.000;  251.000
223.432;   28.575;  184.000;  230.000
223.576;    6.125;  152.000;  -21.000
223.721;   33.875;  364.000;  273.000
223.865;  -59.025; -472.000; -475.000
224.009;  243.950; 1673.000; 1631.000
224.153;  -96.775; -660.000; -671.000
224.298;  -81.175; -531.000; -489.000
224.442;   -5.925;  -74.000;  -33.000
224.586;  -25.300; -169.000; -106.000
224.730; -105.550; -858.000; -670.000
224.875; -112.725; -739.000; -688.000
225.019;    6.400;  102.000;  188.000
225.163;   56.525;  208.000;  341.000
225.307;   18.825;   97.000;  -91.000
225.451;   43.650;  360.000;  481.000
225.595;   25.800;  264.000;  176.000
225.739;  -16.800; -170.000;  -94.000
225.884;    3.875;   86.000;    5.000
226.028; -109.275; -760.000; -626.000
226.172;  -51.900; -260.000; -273.000
226.316; -130.800; -941.000; -902.000
226.460;  -68.350; -645.000; -493.000
226.604;  -69.225; -406.000; -400.000
226.748; -100.500; -836.000; -733.000
226.892;  -48.000; -227.000; -181.000
227.036;  -53.050; -537.000; -447.000
227.180;  -64.600; -551.000; -375.000
227.324;  -73.500; -561.000; -580.000
227.468; -128.325; -819.000; -717.000
227.612;    8.325;  242.000;  -28.000
227.756; -104.250; -845.000; -698.000
227.900;   50.675;  342.000;  441.000
228.044;  -52.625; -509.000; -290.000
228.188;   43.950;  448.000;  568.000
228.332;  -95.700; -546.000; -472.000
228.476;  -30.300; -223.000; -149.000
228.620;  -33.175; -210.000; -150.000
228.764;   77.625;  431.000;  349.000
228.908;  -30.050; -155.000;   30.000
229.052;  -57.475; -615.000; -528.000
229.195;  -19.850; -172.000;   13.000
229.339;  -34.800; -235.000; -305.000
229.483;  -27.950;    5.000; -162.000
229.627;    3.725; -156.000;  139.000
229.771;  -60.900; -218.000; -294.000
229.915;   20.150;  230.000;   79.000
230.059;  -98.975; -648.000; -663.000
230.202;  -38.225; -370.000; -317.000
230.346;  -27.325; -107.000;  107.000
230.490;  -59.900; -489.000; -521.000
230.634; -110.350; -736.000; -553.000
230.777;   62.775;  478.000;  509.000
230.921;  -51.825; -450.000; -359.000
231.065;  -41.100; -246.000; -286.000
231.209;   28.275;  261.000;  265.000
231.352;   24.550;   54.000;   40.000
231.496;   21.300;  568.000;  188.000
231.640;  -77.375; -693.000; -621.000
231.783;   50.500;  546.000;  525.000
231.927;  -50.225; -294.000; -365.000
232.071; -126.125; -962.000; -736.000
232.214; -114.050; -980.000; -764.000
232.358; -116.600; -683.000; -599.000
232.502;    3.850;  -19.000;    7.000
232.645; -135.950;-1090.000; -927.000
232.789;  -14.875; -257.000; -218.000
232.933;  -51.275; -407.000; -224.000
233.076; -125.400;-1038.000; -897.000
233.220; -114.825; -752.000; -777.000
233.363;  -82.625; -669.000; -477.000
233.507;   68.600;  371.000;  129.000
233.650;  -98.225; -764.000; -834.000
233.794;   30.100;  438.000;  461.000
233.938;  -52.900; -530.000; -362.000
234.081;  -19.550;  -93.000;   31.000
234.225;  -67.450; -631.000; -539.000
234.368; -127.175; -773.000; -723.000
234.512;  -47.725; -385.000; -299.000
234.655;  -93.425; -582.000; -555.000
234.798;  -80.550; -493.000; -466.000
234.942; -132.075; -884.000;-1002.000
235.085;  -68.375; -651.000; -443.000
235.229;  -75.575; -405.000; -410.000
235.372;  -52.100; -247.000; -191.000
235.516;  -59.100; -397.000; -321.000
235.659;   26.875;   92.000;  121.000
235.802;  -18.075;  -38.000;  -22.000
235.946;   12.825;  335.000;  215.000
236.089;   27.950;  126.000;  250.000
236.233;   44.100;  275.000;  298.000
236.376;  -57.925; -235.000; -378.000
236.519;  -51.750; -297.000; -319.000
236.663;  -20.675; -215.000; -117.000
236.806; -137.550;-1029.000; -999.000
236.949;   71.850;  543.000;  431.000
237.092;   66.000;  412.000;  391.000
237.236;  -83.200; -589.000; -502.000
237.379;   62.700;  352.000;  428.000
237.522; -125.650; -879.000; -768.000
237.666;  -21.725; -271.000;   18.000
237.809; -134.300; -851.000; -823.000
237.952;   38.925;  469.000;  271.000
238.095;  -72.575; -447.000; -442.000
238.238;   86.100;  688.000;  700.000
238.382;  -15.700;  166.000;  103.000
238.525;  -82.425; -598.000; -511.000
238.668; -140.800;-1060.000; -985.000
238.811;  -85.850; -638.000; -643.000
238.954;  -78.000; -483.000; -334.000
239.097;  102.575;  617.000;  664.000
239.241;   25.550;  394.000;  326.000
239.384;  -33.175; -254.000; -214.000
239.527;  -75.675; -424.000; -224.000
239.670; -154.450; -994.000;-1091.000
239.813; -105.550; -696.000; -658.000
239.956;   76.775;  579.000;  473.000
240.099; -120.525; -778.000; -725.000
240.242;   49.875;  428.000;  432.000
240.385;   62.975;  466.000;  450.000
240.528;  -76.050; -706.000; -473.000
240.671;    8.975;  189.000;  134.000
240.814;  -49.125; -441.000; -158.000
240.957; -106.775; -767.000; -578.000
241.100;  -89.825; -779.000; -755.000
241.243; -137.475;-1234.000; -893.000
241.386;  -69.050; -508.000; -379.000
241.529; -103.050; -735.000; -547.000
241.672;  -67.400; -566.000; -495.000
241.815; -121.825; -832.000; -808.000
241.958;  -18.900; -125.000; -182.000
242.101;  -86.900; -545.000; -390.000
242.244;  -51.075; -270.000; -325.000
242.387;  -47.275; -304.000; -246.000
242.530;   63.575;  470.000;  134.000
242.673;  -49.425; -381.000; -309.000
242.815; -119.600; -925.000; -899.000
242.958;  -68.650; -482.000; -381.000
243.101;   12.800;  132.000;  187.000
243.244;  -89.900; -564.000; -521.000
243.387;  -51.575; -313.000; -316.000
243.530; -106.675; -657.000; -674.000
243.672;    2.625;   43.000;  -92.000
243.815;  -55.725; -355.000; -283.000
243.958;   -3.100;   98.000;  -26.000
244.101;   -2.350;   59.000;  -16.000
244.243;   -6.550;  -47.000;  101.000
244.386; -112.875; -761.000; -630.000
244.529;  -27.825; -132.000; -139.000
244.672; -165.350;-1154.000; -951.000
244.814; -111.625; -621.000; -794.000
244.957;  -49.550; -380.000; -304.000
245.100;  -79.850; -489.000; -489.000
245.242;  -68.775; -387.000; -374.000
245.385;    2.750;  -59.000;  -39.000
245.528; -142.350; -871.000; -705.000
245.670;   87.925;  612.000;  634.000
245.813;  -92.725; -599.000; -547.000
245.956;  -30.325; -324.000; -275.000
246.098;  -83.900; -508.000; -650.000
246.241;    1.875;  194.000;   48.000
246.383;  -17.125; -119.000;  -73.000
246.526;  -83.075; -454.000; -525.000
246.669; -131.050; -889.000; -780.000
246.811;   10.625;  172.000;   -1.000
246.954;  -78.525; -512.000; -426.000
247.096;  -32.475;  -84.000;   -6.000
247.239;  -60.650; -482.000; -445.000
247.381;  -69.575; -647.000; -488.000
247.524;   80.800;  645.000;  679.000
247.666;  -11.025;   58.000;   11.000
247.809; -126.625; -887.000; -691.000
247.951;   -6.200;  -75.000;  138.000
248.094;   16.400;  432.000;  308.000
248.236; -169.450;-1262.000;-1238.000
248.378;    3.025; -356.000;  -81.000
248.521;  -29.000; -334.000; -337.000
248.663;  -50.075; -236.000; -267.000
248.806;  -41.950; -300.000; -266.000
248.948; -115.400; -886.000; -763.000
249.090;  -42.275; -428.000; -398.000
249.233;  -47.550; -344.000; -381.000
249.375;  -63.000; -474.000; -451.000
249.518;  -22.675;  -83.000; -133.000
249.660;   -3.375; -103.000;    3.000
249.802; -180.300;-1303.000;-1189.000
249.945;  -92.000; -612.000; -540.000
250.087; -127.325; -834.000; -768.000
250.229;  -54.725; -362.000; -480.000
250.371;  -89.100; -494.000; -439.000
250.514;  -58.850; -310.000; -244.000
250.656;  -80.650;   69.000;  102.000
250.798; -123.825; -849.000; -800.000
250.940;  -72.025; -322.000; -322.000
251.083;  -35.200; -335.000; -111.000
251.225;   39.500;  338.000;  310.000
251.367;  -40.825; -274.000; -373.000
251.509;  -41.050; -265.000; -210.000
251.651; -102.700; -731.000; -671.000
251.794;   56.800;  538.000;  632.000
251.936; -107.175; -821.000; -747.000
252.078;  -76.575; -540.000; -461.000
252.220;  -70.200; -645.000; -477.000
252.362;   87.275;  344.000;  462.000
252.504;  -79.550; -677.000; -584.000
252.646; -120.525; -875.000; -722.000
252.788;    3.975;   14.000; -128.000
252.931;  -38.625; -257.000; -253.000
253.073;  -35.075; -376.000; -317.000
253.215;   -7.725;  141.000;  122.000
253.357;  -14.525;   82.000; -153.000
253.499;  -53.825; -374.000; -234.000
253.641;  -88.875; -749.000; -594.000
253.783;  -90.950; -609.000; -527.000
253.925;  -99.925; -586.000; -591.000
254.067; -102.050; -744.000; -667.000
254.209;  -19.300; -391.000; -259.000
254.351; -139.950; -865.000; -883.000
254.493;  -69.900; -441.000; -417.000
254.635; -142.325; -936.000; -818.000
254.777;  -86.200; -752.000; -687.000
254.918;  -61.600; -512.000; -430.000
255.060;  -60.575; -551.000; -395.000
255.202;  -64.350; -473.000; -261.000
255.344;  -79.950; -658.000; -455.000
255.486;  -76.525; -471.000; -406.000
255.628; -107.125; -780.000; -781.000
255.770;  -92.550; -676.000; -536.000
255.912;  -61.400; -559.000; -468.000
256.053; -115.850; -730.000; -508.000
256.195;  156.500; 1008.000;  903.000
256.337;  -99.575; -861.000; -595.000
256.479;   59.650;  532.000;  416.000
256.621;  -59.475; -394.000; -212.000
256.762;  -86.200; -789.000; -742.000
256.904;   54.800;  485.000;  487.000
257.046;  -42.400; -381.000; -271.000
257.188;  -45.600; -351.000; -264.000
257.329;  -72.500; -525.000; -464.000
257.471; -120.600; -939.000; -807.000
257.613;  -67.900; -584.000; -498.000
257.755; -141.350;-1073.000; -982.000
257.896;   49.200;  286.000;  392.000
258.038;  -77.575; -403.000; -352.000
258.180;  -37.450; -354.000; -279.000
258.321;  -90.875; -581.000; -457.000
258.463;    3.100;  -71.000;  133.000
258.605;  -96.825; -562.000; -570.000
258.746; -108.025; -886.000; -772.000
258.888; -161.225;-1026.000;-1020.000
259.029;   13.325;  121.000;   -8.000
259.171; -102.350; -614.000; -550.000
259.313;    0.600;  -49.000;  -47.000
259.454;  -98.150; -536.000; -414.000
259.596;  -62.600; -483.000; -390.000
259.737;  -87.400; -590.000; -474.000
259.879;   47.075;  217.000;  311.000
260.020;  101.025;  901.000;  636.000
260.162;  -38.475; -146.000; -253.000
260.303; -119.725; -768.000; -687.000
260.445;  -77.200; -609.000; -613.000
260.586;   20.575;  392.000;  157.000
260.728;  -54.500; -360.000; -248.000
260.869; -126.625; -350.000; -343.000
261.011;   89.850;  706.000;  537.000
261.152;  -70.950; -479.000; -319.000
261.293;  -81.650; -576.000; -595.000
261.435;  -27.800; -219.000; -184.000
261.576;  -54.125; -455.000; -325.000
261.718;   65.300;  420.000;  470.000
261.859; -133.000; -940.000; -949.000
262.000; -145.800; -951.000;-1016.000
262.142;  -29.650;  -52.000;  -60.000
262.283; -118.450; -808.000; -691.000
262.424;  -93.575; -666.000; -625.000
262.566; -157.400;-1161.000; -983.000
262.707; -120.950; -840.000; -830.000
262.848; -129.375; -769.000; -726.000
262.990;  -37.975; -362.000; -345.000
263.131;   80.250;  650.000;  681.000
263.272;   -9.775;  -61.000;  -41.000
263.413;  -96.075; -589.000; -561.000
263.555;  -69.525; -669.000; -143.000
263.696; -100.775; -550.000; -641.000
263.837;  -66.375; -449.000; -551.000
263.978;   -4.050;   -5.000;  -77.000
264.119;  -56.425; -283.000; -264.000
264.261; -127.475; -847.000; -630.000
264.402;   -0.725;   33.000;   40.000
264.543;  -83.775; -509.000; -524.000
264.684;  -11.625;   61.000;  -50.000
264.825;  -86.075; -816.000; -538.000
264.966;  -10.500;  -84.000;  -67.000
265.107; -116.850; -646.000; -670.000
265.248; -120.750; -825.000; -812.000
265.390;  -20.025;  152.000;   -9.000
265.531;  -34.775; -238.000; -107.000
265.672;  -84.925; -557.000; -630.000
265.813;   61.500;  563.000;  439.000
265.954; -142.075; -959.000; -940.000
266.095;  -26.825; -372.000; -322.000
266.236;  -90.325; -686.000; -548.000
266.377;  -39.950; -243.000; -297.000
266.518;  -63.375; -619.000; -547.000
266.659;   41.175;  170.000;  268.000
266.800;   -4.575;   83.000;   85.000
266.941;  -64.600; -487.000; -478.000
267.082;   16.900;  354.000;   99.000
267.223;  -49.400; -344.000; -273.000
267.364; -130.775; -892.000; -686.000
267.504;   -4.375;    3.000;  135.000
267.645;  -13.225;  160.000;   67.000
267.786;  -20.800; -147.000;  -86.000
267.927;  -86.025; -473.000; -379.000
268.068;  -17.725; -186.000;  -61.000
268.209;  -58.200; -175.000; -413.000
268.350;  -62.025; -388.000; -532.000
268.490;  -94.600; -648.000; -521.000
268.631;   30.625;  127.000;  225.000
268.772; -113.650; -874.000; -647.000
268.913;  -47.325; -328.000; -476.000
269.054;  -27.575; -117.000;   12.000
269.194;  -45.100; -418.000; -402.000
269.335; -164.300;-1137.000;-1074.000
269.476;  -20.675;   33.000;  -35.000
269.617;  -56.575; -347.000; -392.000
269.757;  -97.050; -713.000; -646.000
269.898; -108.500; -856.000; -613.000
270.039;  -61.525; -415.000; -405.000
270.180; -139.500; -952.000; -816.000
270.320;  -20.975; -190.000; -250.000
