
Integration time [ms]: 200.000
Averaging Nr. [scans]: 10
Smoothing Nr. [pixels]: 0
Data measured with spectrometer [name]: 2101012U2
Wave   ;Sample   ;Dark     ;Reference
[nm]   ;[counts] ;[counts] ;[counts] 

197.733;  135.500;  516.000;  404.000
197.879; -172.000; -610.000; -634.000
198.025; -112.800; -475.000; -420.000
198.171; -142.100; -602.000; -612.000
198.317;  -54.100; -401.000; -316.000
198.463; -104.700; -655.000; -404.000
198.609;   80.200;  181.000; -137.000
198.755; -180.600; -644.000; -410.000
198.901; -112.200; -505.000; -424.000
199.047; -154.300; -615.000; -488.000
199.193;  -51.900; -230.000; -468.000
199.339;  -93.300; -222.000; -369.000
199.485;   99.200;  330.000;  271.000
199.631;   41.800;  227.000;  310.000
199.777;  -97.400; -466.000; -398.000
199.923; -134.100; -610.000; -424.000
200.069;  -22.100; -141.000;  -58.000
200.215;   94.600;  128.000;  453.000
200.361;  104.500;  243.000;  477.000
200.507; -117.500; -600.000; -373.000
200.653;  -47.400; -371.000; -194.000
200.798;  -92.800; -215.000; -125.000
200.944;    7.400; -146.000;  -41.000
201.090;   86.000;   61.000;  222.000
201.236;   -5.100; -116.000; -158.000
201.382;  278.100;  874.000;  903.000
201.528;  -10.700;  -58.000;  -48.000
201.674; -126.600; -386.000; -293.000
201.819; -112.300; -540.000; -439.000
201.965; -182.600; -699.000; -447.000
202.111;  -54.300; -273.000; -226.000
202.257;  -63.400; -250.000; -238.000
202.402;   50.100;   13.000;  -36.000
202.548;  -50.800; -169.000; -116.000
202.694;  214.500;  410.000; -183.000
202.840; -178.400; -603.000; -531.000
202.985; -108.500; -681.000; -639.000
203.131; -223.000; -832.000; -666.000
203.277;  -38.300; -199.000; -262.000
203.423; -103.500; -434.000; -520.000
203.568;  -29.800; -462.000; -237.000
203.714; -120.300; -535.000; -542.000
203.860; -157.200; -682.000; -641.000
204.005;   57.800;  112.000;  167.000
204.151;  190.100;  561.000;  556.000
204.296;  -68.100; -354.000; -221.000
204.442; -151.300; -600.000; -547.000
204.588; -144.600; -592.000; -579.000
204.733;   62.900;  178.000;  168.000
204.879; -263.800;-1018.000; -822.000
205.025;   43.200;  -99.000;  126.000
205.170;   31.000;  -17.000;   94.000
205.316;  184.300;  438.000;  661.000
205.461; -169.200; -698.000; -554.000
205.607;  203.300;  609.000;  665.000
205.752; -160.800; -626.000; -551.000
205.898;  -86.900; -501.000; -391.000
206.043; -129.800; -578.000; -506.000
206.189;  -63.700; -243.000; -285.000
206.334;  185.600;  554.000;  606.000
206.480;  124.300;  409.000;  239.000
206.625; -196.900; -529.000; -552.000
206.771;  -70.200; -451.000; -373.000
206.916;  -61.500; -210.000; -537.000
207.062; -149.100; -545.000; -591.000
207.207; -122.700; -546.000; -443.000
207.353;  134.600;  185.000;  460.000
207.498;   25.200;  196.000;   85.000
207.643;  -74.500; -501.000; -370.000
207.789; -251.400;-1069.000; -910.000
207.934; -187.800; -665.000; -713.000
208.080;  -28.400; -154.000;   66.000
208.225;    6.800;  -22.000;  -57.000
208.370; -165.000; -727.000; -619.000
208.516; -136.500; -741.000; -487.000
208.661;  -75.300; -127.000;  -69.000
208.806;  -23.100; -165.000; -171.000
208.952; -260.000;-1044.000; -731.000
209.097;  167.300;  378.000;  349.000
209.242;  -75.200; -307.000; -382.000
209.387;  143.300;  392.000;  350.000
209.533; -105.800; -321.000; -350.000
209.678;  204.500;  472.000;  543.000
209.823;  -79.300; -408.000; -310.000
209.969; -235.200; -860.000; -757.000
210.114; -237.900; -907.000; -719.000
210.259; -226.400; -939.000; -889.000
210.404;  -32.600; -171.000;  103.000
210.549;   29.500;  108.000;    3.000
210.695;  -14.400;   -3.000;  -95.000
210.840;  105.000;   94.000;   67.000
210.985; -157.500; -484.000; -303.000
211.130;  160.800;  268.000;  406.000
211.275;   56.000;  207.000;  199.000
211.420;  -92.600; -300.000; -289.000
211.566; -144.100; -536.000; -489.000
211.711;   44.500;  218.000;  157.000
211.856; -139.600; -545.000; -519.000
212.001;   35.900;  151.000;   44.000
212.146;   17.800;  153.000;   49.000
212.291;  -45.000; -210.000; -186.000
212.436;  -67.400; -280.000;   -6.000
212.581; -171.300; -685.000; -653.000
212.726; -154.400; -487.000; -538.000
212.871; -100.300; -552.000; -217.000
213.016; -294.900;-1172.000;-1029.000
213.161;  157.600;  406.000;  291.000
213.306; -148.300; -435.000; -577.000
213.451; -198.100; -778.000; -689.000
213.596;  -99.700; -455.000; -347.000
213.741;  -85.800; -448.000; -538.000
213.886; -150.500; -498.000; -517.000
214.031;  -33.800; -294.000; -124.000
214.176;  -67.100; -408.000; -341.000
214.321;  -23.600; -296.000; -157.000
214.466;  -49.500; -163.000;  -43.000
214.611;   -1.300;  -61.000;  -10.000
214.756; -235.200; -948.000; -858.000
214.901;  -41.500; -388.000; -226.000
215.046; -255.700; -797.000; -825.000
215.191;   19.200;  128.000;   35.000
215.336;  -25.400; -157.000;  -19.000
215.480; -130.400; -684.000; -505.000
215.625;   12.200; -175.000;  -19.000
215.770; -164.100; -757.000; -662.000
215.915;  -22.500;   -5.000;  -97.000
216.060;    1.700; -113.000;  -21.000
216.205; -206.300; -731.000; -779.000
216.349; -119.400; -470.000; -533.000
216.494; -261.900; -939.000; -867.000
216.639; -233.600; -823.000; -888.000
216.784; -176.800; -577.000; -525.000
216.929;  124.300;  392.000;  281.000
217.073;  -16.900; -244.000;  -31.000
217.218;   40.300;   78.000;  -47.000
217.363; -181.400; -656.000; -618.000
217.507; -139.300; -623.000; -588.000
217.652; -275.200; -845.000; -874.000
217.797; -163.200; -708.000; -659.000
217.942; -237.500; -856.000; -720.000
218.086;  176.200;  608.000;  539.000
218.231;    0.900; -174.000;  -26.000
218.376;  -46.800; -337.000; -229.000
218.520;   -8.800;  -41.000;   96.000
218.665;  -51.300; -338.000; -204.000
218.810;  -97.100; -275.000; -233.000
218.954;   52.700;  201.000;   35.000
219.099; -238.800; -713.000; -963.000
219.243; -154.700; -589.000; -554.000
219.388;  -53.700; -264.000; -136.000
219.532;    8.500; -116.000; -116.000
219.677; -152.300; -564.000; -521.000
219.822;   13.900;   33.000;   89.000
219.966;  -13.300;   17.000;  -99.000
220.111;  -64.400; -328.000;  -40.000
220.255; -181.000; -797.000; -750.000
220.400;  -22.300; -180.000; -146.000
220.544; -150.400; -516.000; -450.000
220.689;  -95.800; -422.000; -451.000
220.833;  -52.200; -123.000;  -58.000
220.978;  -71.800; -393.000; -563.000
221.122;   45.300;  319.000;  307.000
221.267; -191.600; -906.000; -837.000
221.411; -120.600; -478.000; -394.000
221.555;  -18.300; -104.000;  -23.000
221.700;  -76.900; -329.000; -222.000
221.844;  112.600;  255.000;  272.000
221.989;  -76.400; -328.000; -311.000
222.133;  -69.700; -289.000; -307.000
222.277;   -6.200;    5.000;   78.000
222.422;   73.800;  227.000;  113.000
222.566;  -61.700; -381.000; -214.000
222.711;  -99.500; -414.000; -479.000
222.855; -164.100; -643.000; -586.000
222.999; -164.200; -642.000; -717.000
223.144;  -66.300; -195.000; -194.000
223.288;  153.300;  423.000;  251.000
223.432;   15.600;  184.000;  230.000
223.576;   56.200;  152.000;  -21.000
223.721;   97.700;  364.000;  273.000
223.865;  -92.400; -472.000; -475.000
224.009;  561.400; 1673.000; 1631.000
224.153; -167.000; -660.000; -671.000
224.298; -160.800; -531.000; -489.000
224.442;    1.200;  -74.000;  -33.000
224.586;   -4.300; -169.000; -106.000
224.730; -195.600; -858.000; -670.000
224.875; -213.400; -739.000; -688.000
225.019;   90.800;  102.000;  188.000
225.163;  123.800;  208.000;  341.000
225.307;   75.400;   97.000;  -91.000
225.451;   98.500;  360.000;  481.000
225.595;  126.200;  264.000;  176.000
225.739;  -13.500; -170.000;  -94.000
225.884;   26.500;   86.000;    5.000
226.028; -176.800; -760.000; -626.000
226.172;  -65.700; -260.000; -273.000
226.316; -226.500; -941.000; -902.000
226.460; -146.000; -645.000; -493.000
226.604;  -88.900; -406.000; -400.000
226.748; -179.300; -836.000; -733.000
226.892;  -42.700; -227.000; -181.000
227.036;  -66.200; -537.000; -447.000
227.180; -125.900; -551.000; -375.000
227.324; -116.700; -561.000; -580.000
227.468; -240.700; -819.000; -717.000
227.612;   25.400;  242.000;  -28.000
227.756; -201.200; -845.000; -698.000
227.900;  158.600;  342.000;  441.000
228.044; -104.300; -509.000; -290.000
228.188;  143.900;  448.000;  568.000
228.332; -180.500; -546.000; -472.000
228.476;  -40.600; -223.000; -149.000
228.620;  -58.400; -210.000; -150.000
228.764;  159.800;  431.000;  349.000
228.908;  -40.400; -155.000;   30.000
229.052; -112.400; -615.000; -528.000
229.195;   16.700; -172.000;   13.000
229.339;  -42.000; -235.000; -305.000
229.483;  -67.300;    5.000; -162.000
229.627;   -0.400; -156.000;  139.000
229.771;  -91.700; -218.000; -294.000
229.915;   60.600;  230.000;   79.000
230.059; -147.600; -648.000; -663.000
230.202;  -71.500; -370.000; -317.000
230.346;  -16.100; -107.000;  107.000
230.490; -104.000; -489.000; -521.000
230.634; -208.200; -736.000; -553.000
230.777;  176.300;  478.000;  509.000
230.921; -117.800; -450.000; -359.000
231.065; -101.900; -246.000; -286.000
231.209;   52.600;  261.000;  265.000
231.352;   60.500;   54.000;   40.000
231.496;   69.200;  568.000;  188.000
231.640; -139.100; -693.000; -621.000
231.783;  174.600;  546.000;  525.000
231.927;  -59.500; -294.000; -365.000
232.071; -260.700; -962.000; -736.000
232.214; -208.400; -980.000; -764.000
232.358; -196.600; -683.000; -599.000
232.502;   52.200;  -19.000;    7.000
232.645; -275.000;-1090.000; -927.000
232.789;  -16.900; -257.000; -218.000
232.933;  -97.400; -407.000; -224.000
233.076; -253.300;-1038.000; -897.000
233.220; -184.900; -752.000; -777.000
233.363; -142.200; -669.000; -477.000
233.507;  140.200;  371.000;  129.000
233.650; -182.400; -764.000; -834.000
233.794;  104.600;  438.000;  461.000
233.938;  -81.800; -530.000; -362.000
234.081;  -24.100;  -93.000;   31.000
234.225; -129.500; -631.000; -539.000
234.368; -234.200; -773.000; -723.000
234.512;  -29.300; -385.000; -299.000
234.655; -127.000; -582.000; -555.000
234.798;  -97.500; -493.000; -466.000
234.942; -229.400; -884.000;-1002.000
235.085; -156.100; -651.000; -443.000
235.229; -139.900; -405.000; -410.000
235.372;  -80.200; -247.000; -191.000
235.516; -123.200; -397.000; -321.000
235.659;   89.700;   92.000;  121.000
235.802;  -11.900;  -38.000;  -22.000
235.946;   91.700;  335.000;  215.000
236.089;   77.900;  126.000;  250.000
236.233;  144.700;  275.000;  298.000
236.376;  -52.300; -235.000; -378.000
236.519;  -75.600; -297.000; -319.000
236.663;  -30.000; -215.000; -117.000
236.806; -253.700;-1029.000; -999.000
236.949;  137.700;  543.000;  431.000
237.092;  159.800;  412.000;  391.000
237.236; -169.000; -589.000; -502.000
237.379;  167.300;  352.000;  428.000
237.522; -241.900; -879.000; -768.000
237.666;   22.800; -271.000;   18.000
237.809; -265.600; -851.000; -823.000
237.952;  109.700;  469.000;  271.000
238.095; -122.000; -447.000; -442.000
238.238;  205.700;  688.000;  700.000
238.382;   23.500;  166.000;  103.000
238.525; -114.400; -598.000; -511.000
238.668; -280.200;-1060.000; -985.000
238.811; -131.800; -638.000; -643.000
238.954; -103.000; -483.000; -334.000
239.097;  233.100;  617.000;  664.000
239.241;   48.900;  394.000;  326.000
239.384;  -41.200; -254.000; -214.000
239.527; -150.500; -424.000; -224.000
239.670; -262.500; -994.000;-1091.000
239.813; -230.000; -696.000; -658.000
239.956;  178.600;  579.000;  473.000
240.099; -209.200; -778.000; -725.000
240.242;  142.200;  428.000;  432.000
240.385;  113.200;  466.000;  450.000
240.528;  -97.800; -706.000; -473.000
240.671;   44.800;  189.000;  134.000
240.814;  -66.400; -441.000; -158.000
240.957; -191.400; -767.000; -578.000
241.100; -167.600; -779.000; -755.000
241.243; -273.500;-1234.000; -893.000
241.386;  -99.900; -508.000; -379.000
241.529; -174.900; -735.000; -547.000
241.672; -115.400; -566.000; -495.000
241.815; -214.800; -832.000; -808.000
241.958;  -24.100; -125.000; -182.000
242.101; -165.700; -545.000; -390.000
242.244;  -70.500; -270.000; -325.000
242.387;  -80.400; -304.000; -246.000
242.530;  170.200;  470.000;  134.000
242.673;  -66.700; -381.000; -309.000
242.815; -233.400; -925.000; -899.000
242.958; -139.300; -482.000; -381.000
243.101;   78.500;  132.000;  187.000
243.244; -151.000; -564.000; -521.000
243.387;  -71.600; -313.000; -316.000
243.530; -189.900; -657.000; -674.000
243.672;   28.400;   43.000;  -92.000
243.815;  -78.900; -355.000; -283.000
243.958;    6.400;   98.000;  -26.000
244.101;   43.700;   59.000;  -16.000
244.243;   18.600;  -47.000;  101.000
244.386; -214.200; -761.000; -630.000
244.529;  -29.700; -132.000; -139.000
244.672; -290.800;-1154.000; -951.000
244.814; -190.700; -621.000; -794.000
244.957;  -39.600; -380.000; -304.000
245.100; -136.800; -489.000; -489.000
245.242; -115.000; -387.000; -374.000
245.385;   35.900;  -59.000;  -39.000
245.528; -259.200; -871.000; -705.000
245.670;  200.500;  612.000;  634.000
245.813; -156.700; -599.000; -547.000
245.956;  -36.000; -324.000; -275.000
246.098; -140.400; -508.000; -650.000
246.241;   73.000;  194.000;   48.000
246.383;   -9.100; -119.000;  -73.000
246.526; -148.500; -454.000; -525.000
246.669; -243.500; -889.000; -780.000
246.811;   84.000;  172.000;   -1.000
246.954;  -83.600; -512.000; -426.000
247.096;  -28.700;  -84.000;   -6.000
247.239; -132.200; -482.000; -445.000
247.381; -115.700; -647.000; -488.000
247.524;  168.100;  645.000;  679.000
247.666;   53.400;   58.000;   11.000
247.809; -227.900; -887.000; -691.000
247.951;   17.500;  -75.000;  138.000
248.094;   73.800;  432.000;  308.000
248.236; -297.400;-1262.000;-1238.000
248.378;   12.400; -356.000;  -81.000
248.521;  -26.100; -334.000; -337.000
248.663;  -37.500; -236.000; -267.000
248.806;  -33.100; -300.000; -266.000
248.948; -170.500; -886.000; -763.000
249.090;  -48.000; -428.000; -398.000
249.233;  -83.600; -344.000; -381.000
249.375; -121.900; -474.000; -451.000
249.518;    9.800;  -83.000; -133.000
249.660;   -7.500; -103.000;    3.000
249.802; -352.600;-1303.000;-1189.000
249.945; -125.500; -612.000; -540.000
250.087; -213.200; -834.000; -768.000
250.229;  -70.200; -362.000; -480.000
250.371; -149.300; -494.000; -439.000
250.514;  -70.900; -310.000; -244.000
250.656; -105.900;   69.000;  102.000
250.798; -217.200; -849.000; -800.000
250.940; -104.300; -322.000; -322.000
251.083;    0.800; -335.000; -111.000
251.225;  124.300;  338.000;  310.000
251.367;  -29.500; -274.000; -373.000
251.509;  -53.000; -265.000; -210.000
251.651; -187.100; -731.000; -671.000
251.794;  143.800;  538.000;  632.000
251.936; -183.100; -821.000; -747.000
252.078; -114.500; -540.000; -461.000
252.220; -116.700; -645.000; -477.000
252.362;  195.000;  344.000;  462.000
252.504; -119.200; -677.000; -584.000
252.646; -218.500; -875.000; -722.000
252.788;   17.900;   14.000; -128.000
252.931;  -84.600; -257.000; -253.000
253.073;  -93.700; -376.000; -317.000
253.215;  -11.400;  141.000;  122.000
253.357;  -12.000;   82.000; -153.000
253.499;  -93.900; -374.000; -234.000
253.641; -162.900; -749.000; -594.000
253.783; -180.800; -609.000; -527.000
253.925; -159.300; -586.000; -591.000
254.067; -215.300; -744.000; -667.000
254.209;  -27.100; -391.000; -259.000
254.351; -247.000; -865.000; -883.000
254.493; -114.800; -441.000; -417.000
254.635; -218.300; -936.000; -818.000
254.777; -141.800; -752.000; -687.000
254.918; -119.600; -512.000; -430.000
255.060; -100.500; -551.000; -395.000
255.202; -101.500; -473.000; -261.000
255.344; -106.100; -658.000; -455.000
255.486;  -89.000; -471.000; -406.000
255.628; -178.700; -780.000; -781.000
255.770; -180.300; -676.000; -536.000
255.912;  -91.500; -559.000; -468.000
256.053; -175.100; -730.000; -508.000
256.195;  370.400; 1008.000;  903.000
256.337; -211.600; -861.000; -595.000
256.479;  154.000;  532.000;  416.000
256.621;  -73.500; -394.000; -212.000
256.762; -172.100; -789.000; -742.000
256.904;  129.900;  485.000;  487.000
257.046;  -87.600; -381.000; -271.000
257.188;  -66.100; -351.000; -264.000
257.329; -149.500; -525.000; -464.000
257.471; -229.000; -939.000; -807.000
257.613;  -94.100; -584.000; -498.000
257.755; -287.300;-1073.000; -982.000
257.896;  123.400;  286.000;  392.000
258.038;  -92.900; -403.000; -352.000
258.180;  -35.200; -354.000; -279.000
258.321; -161.400; -581.000; -457.000
258.463;   42.700;  -71.000;  133.000
258.605; -154.800; -562.000; -570.000
258.746; -164.800; -886.000; -772.000
258.888; -306.900;-1026.000;-1020.000
259.029;   72.100;  121.000;   -8.000
259.171; -148.500; -614.000; -550.000
259.313;   44.500;  -49.000;  -47.000
259.454; -139.800; -536.000; -414.000
259.596;  -73.700; -483.000; -390.000
259.737; -140.600; -590.000; -474.000
259.879;  123.300;  217.000;  311.000
260.020;  207.400;  901.000;  636.000
260.162;  -28.300; -146.000; -253.000
260.303; -220.300; -768.000; -687.000
260.445; -139.000; -609.000; -613.000
260.586;  108.900;  392.000;  157.000
260.728;  -49.600; -360.000; -248.000
260.869; -154.700; -350.000; -343.000
261.011;  222.000;  706.000;  537.000
261.152;  -97.900; -479.000; -319.000
261.293; -124.100; -576.000; -595.000
261.435;  -63.500; -219.000; -184.000
261.576;  -64.600; -455.000; -325.000
261.718;  137.900;  420.000;  470.000
261.859; -212.200; -940.000; -949.000
262.000; -272.500; -951.000;-1016.000
262.142;   15.300;  -52.000;  -60.000
262.283; -218.400; -808.000; -691.000
262.424; -179.200; -666.000; -625.000
262.566; -314.600;-1161.000; -983.000
262.707; -214.200; -840.000; -830.000
262.848; -226.400; -769.000; -726.000
262.990;  -72.500; -362.000; -345.000
263.131;  191.200;  650.000;  681.000
263.272;   34.300;  -61.000;  -41.000
263.413; -187.500; -589.000; -561.000
263.555;  -86.600; -669.000; -143.000
263.696; -176.300; -550.000; -641.000
263.837;  -98.900; -449.000; -551.000
263.978;    7.600;   -5.000;  -77.000
264.119;  -74.700; -283.000; -264.000
264.261; -224.000; -847.000; -630.000
264.402;   -2.600;   33.000;   40.000
264.543; -137.000; -509.000; -524.000
264.684;   -4.700;   61.000;  -50.000
264.825; -145.100; -816.000; -538.000
264.966;   21.700;  -84.000;  -67.000
265.107; -202.000; -646.000; -670.000
265.248; -226.000; -825.000; -812.000
265.390;   -0.100;  152.000;   -9.000
265.531;    0.700; -238.000; -107.000
265.672; -168.000; -557.000; -630.000
265.813;  195.600;  563.000;  439.000
265.954; -301.100; -959.000; -940.000
266.095;    8.300; -372.000; -322.000
266.236; -187.500; -686.000; -548.000
266.377;  -75.700; -243.000; -297.000
266.518; -142.700; -619.000; -547.000
266.659;   90.400;  170.000;  268.000
266.800;   43.100;   83.000;   85.000
266.941; -127.800; -487.000; -478.000
267.082;   62.500;  354.000;   99.000
267.223;  -85.600; -344.000; -273.000
267.364; -228.800; -892.000; -686.000
267.504;   -1.200;    3.000;  135.000
267.645;    2.800;  160.000;   67.000
267.786;  -30.900; -147.000;  -86.000
267.927; -135.400; -473.000; -379.000
268.068;   -1.300; -186.000;  -61.000
268.209;  -88.200; -175.000; -413.000
268.350;  -98.500; -388.000; -532.000
268.490; -143.700; -648.000; -521.000
268.631;  122.300;  127.000;  225.000
268.772; -212.300; -874.000; -647.000
268.913;  -89.500; -328.000; -476.000
269.054;  -24.300; -117.000;   12.000
269.194;  -69.100; -418.000; -402.000
269.335; -336.600;-1137.000;-1074.000
269.476;   30.800;   33.000;  -35.000
269.617; -109.900; -347.000; -392.000
269.757; -168.100; -713.000; -646.000
269.898; -189.500; -856.000; -613.000
270.039; -123.500; -415.000; -405.000
270.180; -270.800; -952.000; -816.000
270.320;  -41.100; -190.000; -250.000
