
Integration time [ms]: 200.000
Averaging Nr. [scans]: 10
Smoothing Nr. [pixels]: 0
Data measured with spectrometer [name]: 2101012U2
Wave   ;Sample   ;Dark     ;Reference
[nm]   ;[counts] ;[counts] ;[counts] 

197.733;  130.900;  516.000;  404.000
197.879; -218.400; -610.000; -634.000
198.025; -108.300; -475.000; -420.000
198.171; -156.200; -602.000; -612.000
198.317;  -63.200; -401.000; -316.000
198.463; -140.300; -655.000; -404.000
198.609;   39.700;  181.000; -137.000
198.755; -213.000; -644.000; -410.000
198.901; -143.200; -505.000; -424.000
199.047; -160.300; -615.000; -488.000
199.193;  -84.000; -230.000; -468.000
199.339;  -99.900; -222.000; -369.000
199.485;   89.900;  330.000;  271.000
199.631;   25.000;  227.000;  310.000
199.777; -121.600; -466.000; -398.000
199.923; -150.800; -610.000; -424.000
200.069;  -15.500; -141.000;  -58.000
200.215;  130.800;  128.000;  453.000
200.361;  101.400;  243.000;  477.000
200.507; -183.100; -600.000; -373.000
200.653;  -66.900; -371.000; -194.000
200.798; -112.300; -215.000; -125.000
200.944;  -23.300; -146.000;  -41.000
201.090;   23.800;   61.000;  222.000
201.236;  -10.600; -116.000; -158.000
201.382;  241.600;  874.000;  903.000
201.528;   11.800;  -58.000;  -48.000
201.674;  -82.700; -386.000; -293.000
201.819; -144.300; -540.000; -439.000
201.965; -193.300; -699.000; -447.000
202.111;  -32.500; -273.000; -226.000
202.257;  -90.300; -250.000; -238.000
202.402;   -2.000;   13.000;  -36.000
202.548;  -75.400; -169.000; -116.000
202.694;  166.000;  410.000; -183.000
202.840; -162.500; -603.000; -531.000
202.985; -170.900; -681.000; -639.000
203.131; -254.400; -832.000; -666.000
203.277;  -63.700; -199.000; -262.000
203.423; -132.700; -434.000; -520.000
203.568;  -98.800; -462.000; -237.000
203.714; -125.900; -535.000; -542.000
203.860; -143.900; -682.000; -641.000
204.005;   11.200;  112.000;  167.000
204.151;  182.600;  561.000;  556.000
204.296; -110.800; -354.000; -221.000
204.442; -141.500; -600.000; -547.000
204.588; -188.600; -592.000; -579.000
204.733;   50.000;  178.000;  168.000
204.879; -310.800;-1018.000; -822.000
205.025;   10.500;  -99.000;  126.000
205.170;   -4.400;  -17.000;   94.000
205.316;  160.600;  438.000;  661.000
205.461; -184.700; -698.000; -554.000
205.607;  175.300;  609.000;  665.000
205.752; -196.600; -626.000; -551.000
205.898; -127.100; -501.000; -391.000
206.043; -152.800; -578.000; -506.000
206.189;  -85.700; -243.000; -285.000
206.334;  139.500;  554.000;  606.000
206.480;  179.400;  409.000;  239.000
206.625; -196.900; -529.000; -552.000
206.771;  -96.600; -451.000; -373.000
206.916;  -87.900; -210.000; -537.000
207.062; -174.600; -545.000; -591.000
207.207; -145.500; -546.000; -443.000
207.353;  130.100;  185.000;  460.000
207.498;   -2.200;  196.000;   85.000
207.643; -100.700; -501.000; -370.000
207.789; -296.100;-1069.000; -910.000
207.934; -216.000; -665.000; -713.000
208.080;  -79.200; -154.000;   66.000
208.225;   -6.700;  -22.000;  -57.000
208.370; -191.700; -727.000; -619.000
208.516; -148.800; -741.000; -487.000
208.661;  -58.500; -127.000;  -69.000
208.806;  -33.100; -165.000; -171.000
208.952; -278.900;-1044.000; -731.000
209.097;  144.400;  378.000;  349.000
209.242; -122.000; -307.000; -382.000
209.387;  107.300;  392.000;  350.000
209.533; -124.900; -321.000; -350.000
209.678;  166.600;  472.000;  543.000
209.823; -102.900; -408.000; -310.000
209.969; -215.100; -860.000; -757.000
210.114; -248.400; -907.000; -719.000
210.259; -239.100; -939.000; -889.000
210.404;  -13.800; -171.000;  103.000
210.549;   43.200;  108.000;    3.000
210.695;  -78.700;   -3.000;  -95.000
210.840;   74.800;   94.000;   67.000
210.985; -172.100; -484.000; -303.000
211.130;  155.400;  268.000;  406.000
211.275;   35.000;  207.000;  199.000
211.420; -118.600; -300.000; -289.000
211.566; -164.200; -536.000; -489.000
211.711;   67.400;  218.000;  157.000
211.856; -146.500; -545.000; -519.000
212.001;   14.000;  151.000;   44.000
212.146;   -0.200;  153.000;   49.000
212.291;  -30.100; -210.000; -186.000
212.436;  -59.600; -280.000;   -6.000
212.581; -198.800; -685.000; -653.000
212.726; -156.400; -487.000; -538.000
212.871; -107.400; -552.000; -217.000
213.016; -333.300;-1172.000;-1029.000
213.161;  135.200;  406.000;  291.000
213.306; -177.100; -435.000; -577.000
213.451; -236.200; -778.000; -689.000
213.596; -117.400; -455.000; -347.000
213.741;  -94.800; -448.000; -538.000
213.886; -179.900; -498.000; -517.000
214.031;  -32.200; -294.000; -124.000
214.176; -144.600; -408.000; -341.000
214.321;  -43.300; -296.000; -157.000
214.466;  -91.700; -163.000;  -43.000
214.611;    2.300;  -61.000;  -10.000
214.756; -288.100; -948.000; -858.000
214.901;  -54.200; -388.000; -226.000
215.046; -287.600; -797.000; -825.000
215.191;   40.000;  128.000;   35.000
215.336;  -35.500; -157.000;  -19.000
215.480; -164.600; -684.000; -505.000
215.625;  -33.500; -175.000;  -19.000
215.770; -168.200; -757.000; -662.000
215.915;  -35.000;   -5.000;  -97.000
216.060;   26.600; -113.000;  -21.000
216.205; -231.000; -731.000; -779.000
216.349; -148.600; -470.000; -533.000
216.494; -303.800; -939.000; -867.000
216.639; -215.500; -823.000; -888.000
216.784; -181.700; -577.000; -525.000
216.929;  119.900;  392.000;  281.000
217.073;  -34.600; -244.000;  -31.000
217.218;   16.400;   78.000;  -47.000
217.363; -199.300; -656.000; -618.000
217.507; -175.200; -623.000; -588.000
217.652; -278.600; -845.000; -874.000
217.797; -192.900; -708.000; -659.000
217.942; -270.500; -856.000; -720.000
218.086;  194.300;  608.000;  539.000
218.231;  -52.200; -174.000;  -26.000
218.376;  -61.300; -337.000; -229.000
218.520;  -32.200;  -41.000;   96.000
218.665;  -50.600; -338.000; -204.000
218.810; -115.600; -275.000; -233.000
218.954;   32.900;  201.000;   35.000
219.099; -250.700; -713.000; -963.000
219.243; -117.500; -589.000; -554.000
219.388;  -73.300; -264.000; -136.000
219.532;  -15.200; -116.000; -116.000
219.677; -188.500; -564.000; -521.000
219.822;   -8.700;   33.000;   89.000
219.966;   -1.800;   17.000;  -99.000
220.111;  -69.500; -328.000;  -40.000
220.255; -226.400; -797.000; -750.000
220.400;  -24.700; -180.000; -146.000
220.544; -149.300; -516.000; -450.000
220.689; -123.200; -422.000; -451.000
220.833;  -57.100; -123.000;  -58.000
220.978;  -88.400; -393.000; -563.000
221.122;   57.200;  319.000;  307.000
221.267; -258.300; -906.000; -837.000
221.411; -156.800; -478.000; -394.000
221.555;   -2.200; -104.000;  -23.000
221.700; -119.600; -329.000; -222.000
221.844;  115.600;  255.000;  272.000
221.989;  -86.200; -328.000; -311.000
222.133;  -89.100; -289.000; -307.000
222.277;  -23.800;    5.000;   78.000
222.422;   55.700;  227.000;  113.000
222.566;  -96.500; -381.000; -214.000
222.711; -115.700; -414.000; -479.000
222.855; -170.700; -643.000; -586.000
222.999; -185.800; -642.000; -717.000
223.144;  -73.500; -195.000; -194.000
223.288;  126.000;  423.000;  251.000
223.432;    9.800;  184.000;  230.000
223.576;   33.500;  152.000;  -21.000
223.721;   82.500;  364.000;  273.000
223.865; -126.800; -472.000; -475.000
224.009;  448.300; 1673.000; 1631.000
224.153; -160.900; -660.000; -671.000
224.298; -156.900; -531.000; -489.000
224.442;    6.000;  -74.000;  -33.000
224.586;  -38.700; -169.000; -106.000
224.730; -198.400; -858.000; -670.000
224.875; -240.400; -739.000; -688.000
225.019;   75.000;  102.000;  188.000
225.163;  128.100;  208.000;  341.000
225.307;   55.100;   97.000;  -91.000
225.451;   79.300;  360.000;  481.000
225.595;   41.500;  264.000;  176.000
225.739;  -46.500; -170.000;  -94.000
225.884;   -5.900;   86.000;    5.000
226.028; -216.100; -760.000; -626.000
226.172;  -52.500; -260.000; -273.000
226.316; -249.100; -941.000; -902.000
226.460; -128.700; -645.000; -493.000
226.604; -130.100; -406.000; -400.000
226.748; -201.600; -836.000; -733.000
226.892;  -91.600; -227.000; -181.000
227.036;  -70.600; -537.000; -447.000
227.180; -147.900; -551.000; -375.000
227.324; -129.600; -561.000; -580.000
227.468; -258.200; -819.000; -717.000
227.612;   28.100;  242.000;  -28.000
227.756; -254.100; -845.000; -698.000
227.900;  130.900;  342.000;  441.000
228.044; -124.500; -509.000; -290.000
228.188;  130.900;  448.000;  568.000
228.332; -180.800; -546.000; -472.000
228.476;  -68.100; -223.000; -149.000
228.620;  -84.600; -210.000; -150.000
228.764;  157.200;  431.000;  349.000
228.908;  -34.700; -155.000;   30.000
229.052; -112.200; -615.000; -528.000
229.195;  -28.500; -172.000;   13.000
229.339;  -56.200; -235.000; -305.000
229.483;  -65.700;    5.000; -162.000
229.627;  -19.600; -156.000;  139.000
229.771; -103.100; -218.000; -294.000
229.915;    6.100;  230.000;   79.000
230.059; -221.600; -648.000; -663.000
230.202;  -74.900; -370.000; -317.000
230.346;  -38.400; -107.000;  107.000
230.490;  -96.400; -489.000; -521.000
230.634; -233.100; -736.000; -553.000
230.777;  151.600;  478.000;  509.000
230.921;  -84.000; -450.000; -359.000
231.065;  -69.700; -246.000; -286.000
231.209;   82.300;  261.000;  265.000
231.352;   49.800;   54.000;   40.000
231.496;   32.200;  568.000;  188.000
231.640; -188.000; -693.000; -621.000
231.783;  133.000;  546.000;  525.000
231.927;  -92.400; -294.000; -365.000
232.071; -282.700; -962.000; -736.000
232.214; -243.400; -980.000; -764.000
232.358; -203.000; -683.000; -599.000
232.502;   24.500;  -19.000;    7.000
232.645; -304.400;-1090.000; -927.000
232.789;  -37.100; -257.000; -218.000
232.933;  -98.000; -407.000; -224.000
233.076; -272.400;-1038.000; -897.000
233.220; -260.100; -752.000; -777.000
233.363; -172.800; -669.000; -477.000
233.507;  106.800;  371.000;  129.000
233.650; -181.800; -764.000; -834.000
233.794;   96.100;  438.000;  461.000
233.938; -123.400; -530.000; -362.000
234.081;  -51.700;  -93.000;   31.000
234.225; -144.400; -631.000; -539.000
234.368; -226.400; -773.000; -723.000
234.512;  -82.600; -385.000; -299.000
234.655; -204.600; -582.000; -555.000
234.798; -150.300; -493.000; -466.000
234.942; -288.900; -884.000;-1002.000
235.085; -147.800; -651.000; -443.000
235.229; -185.200; -405.000; -410.000
235.372; -106.600; -247.000; -191.000
235.516; -133.700; -397.000; -321.000
235.659;   62.600;   92.000;  121.000
235.802;  -30.300;  -38.000;  -22.000
235.946;   85.300;  335.000;  215.000
236.089;   55.000;  126.000;  250.000
236.233;  148.600;  275.000;  298.000
236.376; -121.500; -235.000; -378.000
236.519; -102.000; -297.000; -319.000
236.663;  -68.300; -215.000; -117.000
236.806; -264.900;-1029.000; -999.000
236.949;  133.600;  543.000;  431.000
237.092;  120.600;  412.000;  391.000
237.236; -199.400; -589.000; -502.000
237.379;  131.100;  352.000;  428.000
237.522; -262.300; -879.000; -768.000
237.666;  -38.700; -271.000;   18.000
237.809; -278.500; -851.000; -823.000
237.952;  120.700;  469.000;  271.000
238.095; -129.600; -447.000; -442.000
238.238;  208.600;  688.000;  700.000
238.382;  -10.400;  166.000;  103.000
238.525; -148.900; -598.000; -511.000
238.668; -306.200;-1060.000; -985.000
238.811; -171.400; -638.000; -643.000
238.954; -139.000; -483.000; -334.000
239.097;  187.600;  617.000;  664.000
239.241;   52.700;  394.000;  326.000
239.384;  -31.900; -254.000; -214.000
239.527; -129.300; -424.000; -224.000
239.670; -294.400; -994.000;-1091.000
239.813; -252.400; -696.000; -658.000
239.956;  175.200;  579.000;  473.000
240.099; -267.900; -778.000; -725.000
240.242;  158.300;  428.000;  432.000
240.385;  110.200;  466.000;  450.000
240.528; -139.500; -706.000; -473.000
240.671;   31.000;  189.000;  134.000
240.814;  -73.300; -441.000; -158.000
240.957; -201.300; -767.000; -578.000
241.100; -161.600; -779.000; -755.000
241.243; -325.800;-1234.000; -893.000
241.386; -121.500; -508.000; -379.000
241.529; -184.800; -735.000; -547.000
241.672; -118.700; -566.000; -495.000
241.815; -251.300; -832.000; -808.000
241.958;  -21.400; -125.000; -182.000
242.101; -199.800; -545.000; -390.000
242.244;  -63.000; -270.000; -325.000
242.387;  -93.400; -304.000; -246.000
242.530;  135.500;  470.000;  134.000
242.673;  -88.200; -381.000; -309.000
242.815; -254.500; -925.000; -899.000
242.958; -159.400; -482.000; -381.000
243.101;    9.700;  132.000;  187.000
243.244; -175.400; -564.000; -521.000
243.387;  -57.100; -313.000; -316.000
243.530; -197.900; -657.000; -674.000
243.672;  -11.200;   43.000;  -92.000
243.815; -116.200; -355.000; -283.000
243.958;   17.500;   98.000;  -26.000
244.101;   -4.100;   59.000;  -16.000
244.243;  -10.200;  -47.000;  101.000
244.386; -246.400; -761.000; -630.000
244.529;  -38.400; -132.000; -139.000
244.672; -334.300;-1154.000; -951.000
244.814; -201.900; -621.000; -794.000
244.957; -145.500; -380.000; -304.000
245.100; -153.400; -489.000; -489.000
245.242; -141.000; -387.000; -374.000
245.385;  -11.700;  -59.000;  -39.000
245.528; -285.900; -871.000; -705.000
245.670;  215.900;  612.000;  634.000
245.813; -204.500; -599.000; -547.000
245.956;  -45.500; -324.000; -275.000
246.098; -200.000; -508.000; -650.000
246.241;   35.900;  194.000;   48.000
246.383;  -53.800; -119.000;  -73.000
246.526; -157.700; -454.000; -525.000
246.669; -236.900; -889.000; -780.000
246.811;  120.200;  172.000;   -1.000
246.954; -138.000; -512.000; -426.000
247.096;  -18.800;  -84.000;   -6.000
247.239; -166.000; -482.000; -445.000
247.381; -168.600; -647.000; -488.000
247.524;  122.800;  645.000;  679.000
247.666;   10.900;   58.000;   11.000
247.809; -236.000; -887.000; -691.000
247.951;   -4.100;  -75.000;  138.000
248.094;   39.000;  432.000;  308.000
248.236; -337.700;-1262.000;-1238.000
248.378;  -13.200; -356.000;  -81.000
248.521;  -41.000; -334.000; -337.000
248.663; -111.400; -236.000; -267.000
248.806;  -45.500; -300.000; -266.000
248.948; -216.100; -886.000; -763.000
249.090;  -80.600; -428.000; -398.000
249.233; -123.200; -344.000; -381.000
249.375; -129.600; -474.000; -451.000
249.518;  -29.000;  -83.000; -133.000
249.660;   14.700; -103.000;    3.000
249.802; -381.900;-1303.000;-1189.000
249.945; -141.400; -612.000; -540.000
250.087; -271.000; -834.000; -768.000
250.229;  -86.500; -362.000; -480.000
250.371; -162.100; -494.000; -439.000
250.514;  -97.200; -310.000; -244.000
250.656;  -25.500;   69.000;  102.000
250.798; -237.900; -849.000; -800.000
250.940; -158.700; -322.000; -322.000
251.083;  -53.300; -335.000; -111.000
251.225;   94.600;  338.000;  310.000
251.367;  -79.900; -274.000; -373.000
251.509; -113.800; -265.000; -210.000
251.651; -188.200; -731.000; -671.000
251.794;   82.800;  538.000;  632.000
251.936; -224.100; -821.000; -747.000
252.078; -172.000; -540.000; -461.000
252.220; -133.000; -645.000; -477.000
252.362;  161.600;  344.000;  462.000
252.504; -117.300; -677.000; -584.000
252.646; -241.900; -875.000; -722.000
252.788;   13.300;   14.000; -128.000
252.931;  -39.200; -257.000; -253.000
253.073; -124.600; -376.000; -317.000
253.215;  -29.600;  141.000;  122.000
253.357;  -26.200;   82.000; -153.000
253.499; -150.200; -374.000; -234.000
253.641; -210.800; -749.000; -594.000
253.783; -197.700; -609.000; -527.000
253.925; -161.000; -586.000; -591.000
254.067; -230.600; -744.000; -667.000
254.209;  -20.400; -391.000; -259.000
254.351; -297.000; -865.000; -883.000
254.493; -109.000; -441.000; -417.000
254.635; -238.800; -936.000; -818.000
254.777; -159.800; -752.000; -687.000
254.918; -192.000; -512.000; -430.000
255.060; -121.900; -551.000; -395.000
255.202; -175.700; -473.000; -261.000
255.344; -149.800; -658.000; -455.000
255.486; -185.000; -471.000; -406.000
255.628; -231.100; -780.000; -781.000
255.770; -189.800; -676.000; -536.000
255.912; -112.100; -559.000; -468.000
256.053; -195.000; -730.000; -508.000
256.195;  325.100; 1008.000;  903.000
256.337; -254.000; -861.000; -595.000
256.479;  164.400;  532.000;  416.000
256.621; -133.500; -394.000; -212.000
256.762; -211.800; -789.000; -742.000
256.904;   88.800;  485.000;  487.000
257.046;  -78.400; -381.000; -271.000
257.188; -109.900; -351.000; -264.000
257.329; -129.300; -525.000; -464.000
257.471; -253.700; -939.000; -807.000
257.613; -111.400; -584.000; -498.000
257.755; -306.500;-1073.000; -982.000
257.896;   82.000;  286.000;  392.000
258.038; -140.900; -403.000; -352.000
258.180;  -65.900; -354.000; -279.000
258.321; -177.800; -581.000; -457.000
258.463;  -13.000;  -71.000;  133.000
258.605; -162.200; -562.000; -570.000
258.746; -239.000; -886.000; -772.000
258.888; -325.300;-1026.000;-1020.000
259.029;   82.900;  121.000;   -8.000
259.171; -195.200; -614.000; -550.000
259.313;   18.100;  -49.000;  -47.000
259.454; -161.400; -536.000; -414.000
259.596; -106.000; -483.000; -390.000
259.737; -157.500; -590.000; -474.000
259.879;   98.800;  217.000;  311.000
260.020;  163.300;  901.000;  636.000
260.162;  -47.900; -146.000; -253.000
260.303; -275.800; -768.000; -687.000
260.445; -161.300; -609.000; -613.000
260.586;   58.400;  392.000;  157.000
260.728;  -82.100; -360.000; -248.000
260.869; -146.700; -350.000; -343.000
261.011;  202.500;  706.000;  537.000
261.152; -129.400; -479.000; -319.000
261.293; -171.600; -576.000; -595.000
261.435;  -51.900; -219.000; -184.000
261.576;  -90.500; -455.000; -325.000
261.718;  115.800;  420.000;  470.000
261.859; -246.200; -940.000; -949.000
262.000; -295.200; -951.000;-1016.000
262.142;  -11.700;  -52.000;  -60.000
262.283; -232.700; -808.000; -691.000
262.424; -170.400; -666.000; -625.000
262.566; -325.800;-1161.000; -983.000
262.707; -222.400; -840.000; -830.000
262.848; -268.500; -769.000; -726.000
262.990;  -91.600; -362.000; -345.000
263.131;  162.600;  650.000;  681.000
263.272;  -13.400;  -61.000;  -41.000
263.413; -213.900; -589.000; -561.000
263.555; -110.400; -669.000; -143.000
263.696; -193.400; -550.000; -641.000
263.837; -102.300; -449.000; -551.000
263.978;  -17.700;   -5.000;  -77.000
264.119;  -73.700; -283.000; -264.000
264.261; -240.800; -847.000; -630.000
264.402;   -0.900;   33.000;   40.000
264.543; -155.300; -509.000; -524.000
264.684;   25.300;   61.000;  -50.000
264.825; -161.700; -816.000; -538.000
264.966;    3.100;  -84.000;  -67.000
265.107; -235.400; -646.000; -670.000
265.248; -252.300; -825.000; -812.000
265.390;    1.600;  152.000;   -9.000
265.531;  -17.400; -238.000; -107.000
265.672; -195.200; -557.000; -630.000
265.813;  164.300;  563.000;  439.000
265.954; -318.600; -959.000; -940.000
266.095;  -29.400; -372.000; -322.000
266.236; -206.900; -686.000; -548.000
266.377;  -72.500; -243.000; -297.000
266.518; -153.200; -619.000; -547.000
266.659;   69.600;  170.000;  268.000
266.800;   10.700;   83.000;   85.000
266.941; -131.800; -487.000; -478.000
267.082;   21.400;  354.000;   99.000
267.223; -105.500; -344.000; -273.000
267.364; -261.000; -892.000; -686.000
267.504;    1.400;    3.000;  135.000
267.645;   -2.900;  160.000;   67.000
267.786;  -81.700; -147.000;  -86.000
267.927; -147.300; -473.000; -379.000
268.068;  -55.000; -186.000;  -61.000
268.209; -107.000; -175.000; -413.000
268.350; -122.800; -388.000; -532.000
268.490; -186.200; -648.000; -521.000
268.631;  122.800;  127.000;  225.000
268.772; -242.200; -874.000; -647.000
268.913;  -91.900; -328.000; -476.000
269.054;  -18.700; -117.000;   12.000
269.194;  -77.800; -418.000; -402.000
269.335; -312.700;-1137.000;-1074.000
269.476;  -20.300;   33.000;  -35.000
269.617; -102.900; -347.000; -392.000
269.757; -187.500; -713.000; -646.000
269.898; -231.700; -856.000; -613.000
270.039;  -96.800; -415.000; -405.000
270.180; -306.700; -952.000; -816.000
270.320;  -54.800; -190.000; -250.000
