
Integration time [ms]: 100.000
Averaging Nr. [scans]: 40
Smoothing Nr. [pixels]: 0
Data measured with spectrometer [name]: 2101012U2
Wave   ;Sample   ;Dark     ;Reference
[nm]   ;[counts] ;[counts] ;[counts] 

197.733;   62.000;  516.000;  404.000
197.879;  -86.050; -610.000; -634.000
198.025;  -34.675; -475.000; -420.000
198.171;  -81.750; -602.000; -612.000
198.317;  -20.325; -401.000; -316.000
198.463;  -67.100; -655.000; -404.000
198.609;   21.775;  181.000; -137.000
198.755;  -74.725; -644.000; -410.000
198.901;  -65.700; -505.000; -424.000
199.047;  -54.200; -615.000; -488.000
199.193;  -34.700; -230.000; -468.000
199.339;  -49.350; -222.000; -369.000
199.485;   36.550;  330.000;  271.000
199.631;   20.400;  227.000;  310.000
199.777;  -51.075; -466.000; -398.000
199.923;  -64.975; -610.000; -424.000
200.069;   -9.850; -141.000;  -58.000
200.215;   73.000;  128.000;  453.000
200.361;   38.600;  243.000;  477.000
200.507;  -60.425; -600.000; -373.000
200.653;  -24.575; -371.000; -194.000
200.798;  -33.375; -215.000; -125.000
200.944;   -8.125; -146.000;  -41.000
201.090;   33.675;   61.000;  222.000
201.236;   -4.175; -116.000; -158.000
201.382;  132.775;  874.000;  903.000
201.528;    9.375;  -58.000;  -48.000
201.674;  -30.100; -386.000; -293.000
201.819;  -63.375; -540.000; -439.000
201.965;  -78.275; -699.000; -447.000
202.111;  -30.700; -273.000; -226.000
202.257;  -32.400; -250.000; -238.000
202.402;   -2.475;   13.000;  -36.000
202.548;  -29.825; -169.000; -116.000
202.694;   77.100;  410.000; -183.000
202.840;  -76.125; -603.000; -531.000
202.985;  -67.425; -681.000; -639.000
203.131; -103.200; -832.000; -666.000
203.277;  -13.400; -199.000; -262.000
203.423;  -52.100; -434.000; -520.000
203.568;  -34.375; -462.000; -237.000
203.714;  -67.200; -535.000; -542.000
203.860;  -75.375; -682.000; -641.000
204.005;    9.850;  112.000;  167.000
204.151;   86.650;  561.000;  556.000
204.296;  -37.975; -354.000; -221.000
204.442;  -71.050; -600.000; -547.000
204.588;  -82.625; -592.000; -579.000
204.733;   28.250;  178.000;  168.000
204.879; -132.150;-1018.000; -822.000
205.025;   11.600;  -99.000;  126.000
205.170;   -5.225;  -17.000;   94.000
205.316;   82.550;  438.000;  661.000
205.461;  -93.100; -698.000; -554.000
205.607;   73.850;  609.000;  665.000
205.752;  -70.250; -626.000; -551.000
205.898;  -54.400; -501.000; -391.000
206.043;  -53.275; -578.000; -506.000
206.189;  -44.600; -243.000; -285.000
206.334;   79.475;  554.000;  606.000
206.480;   82.575;  409.000;  239.000
206.625;  -84.700; -529.000; -552.000
206.771;  -47.575; -451.000; -373.000
206.916;  -37.625; -210.000; -537.000
207.062;  -79.925; -545.000; -591.000
207.207;  -66.100; -546.000; -443.000
207.353;   56.100;  185.000;  460.000
207.498;   12.925;  196.000;   85.000
207.643;  -55.450; -501.000; -370.000
207.789; -135.550;-1069.000; -910.000
207.934;  -90.525; -665.000; -713.000
208.080;  -11.275; -154.000;   66.000
208.225;   -4.675;  -22.000;  -57.000
208.370;  -77.200; -727.000; -619.000
208.516;  -73.100; -741.000; -487.000
208.661;  -33.975; -127.000;  -69.000
208.806;  -23.325; -165.000; -171.000
208.952; -118.125;-1044.000; -731.000
209.097;   74.200;  378.000;  349.000
209.242;  -44.050; -307.000; -382.000
209.387;   67.700;  392.000;  350.000
209.533;  -48.700; -321.000; -350.000
209.678;   80.500;  472.000;  543.000
209.823;  -61.925; -408.000; -310.000
209.969;  -95.350; -860.000; -757.000
210.114; -105.825; -907.000; -719.000
210.259; -116.775; -939.000; -889.000
210.404;    0.450; -171.000;  103.000
210.549;   11.725;  108.000;    3.000
210.695;  -14.025;   -3.000;  -95.000
210.840;   38.400;   94.000;   67.000
210.985;  -58.075; -484.000; -303.000
211.130;   68.550;  268.000;  406.000
211.275;   30.000;  207.000;  199.000
211.420;  -47.875; -300.000; -289.000
211.566;  -65.200; -536.000; -489.000
211.711;   18.725;  218.000;  157.000
211.856;  -77.225; -545.000; -519.000
212.001;   16.275;  151.000;   44.000
212.146;   23.300;  153.000;   49.000
212.291;  -22.575; -210.000; -186.000
212.436;  -22.600; -280.000;   -6.000
212.581;  -81.225; -685.000; -653.000
212.726;  -73.975; -487.000; -538.000
212.871;  -54.200; -552.000; -217.000
213.016; -149.050;-1172.000;-1029.000
213.161;   55.800;  406.000;  291.000
213.306;  -74.200; -435.000; -577.000
213.451;  -99.450; -778.000; -689.000
213.596;  -49.575; -455.000; -347.000
213.741;  -56.350; -448.000; -538.000
213.886;  -73.725; -498.000; -517.000
214.031;  -25.050; -294.000; -124.000
214.176;  -30.025; -408.000; -341.000
214.321;  -15.025; -296.000; -157.000
214.466;  -23.025; -163.000;  -43.000
214.611;    4.350;  -61.000;  -10.000
214.756; -126.975; -948.000; -858.000
214.901;  -30.375; -388.000; -226.000
215.046; -123.625; -797.000; -825.000
215.191;   10.025;  128.000;   35.000
215.336;  -21.900; -157.000;  -19.000
215.480;  -75.950; -684.000; -505.000
215.625;   -7.900; -175.000;  -19.000
215.770;  -84.875; -757.000; -662.000
215.915;    1.225;   -5.000;  -97.000
216.060;    4.600; -113.000;  -21.000
216.205; -109.600; -731.000; -779.000
216.349;  -67.375; -470.000; -533.000
216.494; -131.975; -939.000; -867.000
216.639; -108.900; -823.000; -888.000
216.784;  -97.100; -577.000; -525.000
216.929;   53.150;  392.000;  281.000
217.073;   -3.850; -244.000;  -31.000
217.218;    2.875;   78.000;  -47.000
217.363;  -81.850; -656.000; -618.000
217.507;  -75.150; -623.000; -588.000
217.652; -132.450; -845.000; -874.000
217.797;  -80.625; -708.000; -659.000
217.942; -102.375; -856.000; -720.000
218.086;   76.900;  608.000;  539.000
218.231;  -27.050; -174.000;  -26.000
218.376;  -35.750; -337.000; -229.000
218.520;    6.550;  -41.000;   96.000
218.665;  -36.375; -338.000; -204.000
218.810;  -47.600; -275.000; -233.000
218.954;    5.325;  201.000;   35.000
219.099; -115.050; -713.000; -963.000
219.243;  -57.350; -589.000; -554.000
219.388;  -26.800; -264.000; -136.000
219.532;  -13.550; -116.000; -116.000
219.677;  -83.700; -564.000; -521.000
219.822;    0.500;   33.000;   89.000
219.966;    7.100;   17.000;  -99.000
220.111;  -35.825; -328.000;  -40.000
220.255; -100.775; -797.000; -750.000
220.400;  -27.625; -180.000; -146.000
220.544;  -69.675; -516.000; -450.000
220.689;  -50.000; -422.000; -451.000
220.833;  -14.100; -123.000;  -58.000
220.978;  -40.775; -393.000; -563.000
221.122;   25.550;  319.000;  307.000
221.267; -110.250; -906.000; -837.000
221.411;  -59.800; -478.000; -394.000
221.555;   -5.975; -104.000;  -23.000
221.700;  -59.675; -329.000; -222.000
221.844;   39.375;  255.000;  272.000
221.989;  -60.325; -328.000; -311.000
222.133;  -29.675; -289.000; -307.000
222.277;  -17.850;    5.000;   78.000
222.422;   15.050;  227.000;  113.000
222.566;  -41.450; -381.000; -214.000
222.711;  -49.200; -414.000; -479.000
222.855;  -78.325; -643.000; -586.000
222.999;  -91.400; -642.000; -717.000
223.144;  -20.325; -195.000; -194.000
223.288;   44.025;  423.000;  251.000
223.432;   24.250;  184.000;  230.000
223.576;   23.075;  152.000;  -21.000
223.721;   39.875;  364.000;  273.000
223.865;  -44.475; -472.000; -475.000
224.009;  259.300; 1673.000; 1631.000
224.153;  -81.850; -660.000; -671.000
224.298;  -71.925; -531.000; -489.000
224.442;   -9.050;  -74.000;  -33.000
224.586;    2.450; -169.000; -106.000
224.730;  -96.725; -858.000; -670.000
224.875; -110.150; -739.000; -688.000
225.019;    9.925;  102.000;  188.000
225.163;   53.525;  208.000;  341.000
225.307;   16.200;   97.000;  -91.000
225.451;   56.550;  360.000;  481.000
225.595;   28.325;  264.000;  176.000
225.739;  -11.250; -170.000;  -94.000
225.884;    5.300;   86.000;    5.000
226.028;  -99.900; -760.000; -626.000
226.172;  -20.650; -260.000; -273.000
226.316; -121.550; -941.000; -902.000
226.460;  -58.950; -645.000; -493.000
226.604;  -53.775; -406.000; -400.000
226.748;  -92.950; -836.000; -733.000
226.892;  -25.425; -227.000; -181.000
227.036;  -58.625; -537.000; -447.000
227.180;  -63.850; -551.000; -375.000
227.324;  -64.225; -561.000; -580.000
227.468; -109.575; -819.000; -717.000
227.612;   14.450;  242.000;  -28.000
227.756; -105.375; -845.000; -698.000
227.900;   43.700;  342.000;  441.000
228.044;  -55.975; -509.000; -290.000
228.188;   43.975;  448.000;  568.000
228.332;  -80.525; -546.000; -472.000
228.476;  -31.350; -223.000; -149.000
228.620;  -34.250; -210.000; -150.000
228.764;   65.150;  431.000;  349.000
228.908;  -29.625; -155.000;   30.000
229.052;  -65.600; -615.000; -528.000
229.195;  -18.900; -172.000;   13.000
229.339;  -32.000; -235.000; -305.000
229.483;  -14.825;    5.000; -162.000
229.627;    3.350; -156.000;  139.000
229.771;  -39.350; -218.000; -294.000
229.915;    3.750;  230.000;   79.000
230.059;  -95.700; -648.000; -663.000
230.202;  -48.500; -370.000; -317.000
230.346;   -5.225; -107.000;  107.000
230.490;  -68.400; -489.000; -521.000
230.634; -107.375; -736.000; -553.000
230.777;   77.300;  478.000;  509.000
230.921;  -50.125; -450.000; -359.000
231.065;  -38.225; -246.000; -286.000
231.209;   30.250;  261.000;  265.000
231.352;   32.300;   54.000;   40.000
231.496;   16.300;  568.000;  188.000
231.640;  -86.075; -693.000; -621.000
231.783;   68.300;  546.000;  525.000
231.927;  -46.075; -294.000; -365.000
232.071; -128.000; -962.000; -736.000
232.214; -108.800; -980.000; -764.000
232.358; -100.625; -683.000; -599.000
232.502;   -1.075;  -19.000;    7.000
232.645; -137.650;-1090.000; -927.000
232.789;  -22.250; -257.000; -218.000
232.933;  -29.575; -407.000; -224.000
233.076; -128.975;-1038.000; -897.000
233.220; -100.025; -752.000; -777.000
233.363;  -76.850; -669.000; -477.000
233.507;   53.100;  371.000;  129.000
233.650; -107.600; -764.000; -834.000
233.794;   42.050;  438.000;  461.000
233.938;  -51.225; -530.000; -362.000
234.081;  -18.400;  -93.000;   31.000
234.225;  -64.000; -631.000; -539.000
234.368; -113.875; -773.000; -723.000
234.512;  -34.625; -385.000; -299.000
234.655;  -87.500; -582.000; -555.000
234.798;  -64.325; -493.000; -466.000
234.942; -140.425; -884.000;-1002.000
235.085;  -77.825; -651.000; -443.000
235.229;  -77.600; -405.000; -410.000
235.372;  -55.200; -247.000; -191.000
235.516;  -64.175; -397.000; -321.000
235.659;   10.475;   92.000;  121.000
235.802;  -16.675;  -38.000;  -22.000
235.946;   22.475;  335.000;  215.000
236.089;   30.425;  126.000;  250.000
236.233;   45.925;  275.000;  298.000
236.376;  -48.500; -235.000; -378.000
236.519;  -40.775; -297.000; -319.000
236.663;  -31.150; -215.000; -117.000
236.806; -134.275;-1029.000; -999.000
236.949;   60.925;  543.000;  431.000
237.092;   56.375;  412.000;  391.000
237.236;  -80.725; -589.000; -502.000
237.379;   72.350;  352.000;  428.000
237.522; -124.725; -879.000; -768.000
237.666;  -15.125; -271.000;   18.000
237.809; -120.225; -851.000; -823.000
237.952;   41.000;  469.000;  271.000
238.095;  -60.075; -447.000; -442.000
238.238;   79.825;  688.000;  700.000
238.382;   -9.700;  166.000;  103.000
238.525;  -66.675; -598.000; -511.000
238.668; -141.325;-1060.000; -985.000
238.811;  -75.375; -638.000; -643.000
238.954;  -60.350; -483.000; -334.000
239.097;   90.500;  617.000;  664.000
239.241;   30.225;  394.000;  326.000
239.384;  -42.600; -254.000; -214.000
239.527;  -69.100; -424.000; -224.000
239.670; -146.700; -994.000;-1091.000
239.813; -102.800; -696.000; -658.000
239.956;   75.825;  579.000;  473.000
240.099; -124.825; -778.000; -725.000
240.242;   62.925;  428.000;  432.000
240.385;   32.525;  466.000;  450.000
240.528;  -68.125; -706.000; -473.000
240.671;   12.675;  189.000;  134.000
240.814;  -35.000; -441.000; -158.000
240.957; -107.400; -767.000; -578.000
241.100;  -90.875; -779.000; -755.000
241.243; -147.025;-1234.000; -893.000
241.386;  -75.450; -508.000; -379.000
241.529;  -91.525; -735.000; -547.000
241.672;  -61.550; -566.000; -495.000
241.815; -131.075; -832.000; -808.000
241.958;  -29.025; -125.000; -182.000
242.101;  -73.900; -545.000; -390.000
242.244;  -47.125; -270.000; -325.000
242.387;  -43.475; -304.000; -246.000
242.530;   51.600;  470.000;  134.000
242.673;  -43.375; -381.000; -309.000
242.815; -123.475; -925.000; -899.000
242.958;  -63.075; -482.000; -381.000
243.101;   11.975;  132.000;  187.000
243.244;  -64.500; -564.000; -521.000
243.387;  -51.975; -313.000; -316.000
243.530;  -93.875; -657.000; -674.000
243.672;    9.250;   43.000;  -92.000
243.815;  -50.575; -355.000; -283.000
243.958;    5.275;   98.000;  -26.000
244.101;    5.650;   59.000;  -16.000
244.243;  -16.550;  -47.000;  101.000
244.386; -121.100; -761.000; -630.000
244.529;  -18.900; -132.000; -139.000
244.672; -147.625;-1154.000; -951.000
244.814;  -95.625; -621.000; -794.000
244.957;  -61.100; -380.000; -304.000
245.100;  -61.150; -489.000; -489.000
245.242;  -61.075; -387.000; -374.000
245.385;  -20.750;  -59.000;  -39.000
245.528; -117.075; -871.000; -705.000
245.670;   87.500;  612.000;  634.000
245.813;  -86.275; -599.000; -547.000
245.956;  -39.900; -324.000; -275.000
246.098;  -83.400; -508.000; -650.000
246.241;   -4.450;  194.000;   48.000
246.383;  -23.550; -119.000;  -73.000
246.526;  -67.800; -454.000; -525.000
246.669; -127.725; -889.000; -780.000
246.811;   26.900;  172.000;   -1.000
246.954;  -59.525; -512.000; -426.000
247.096;  -32.650;  -84.000;   -6.000
247.239;  -63.075; -482.000; -445.000
247.381;  -62.625; -647.000; -488.000
247.524;   82.150;  645.000;  679.000
247.666;   -9.300;   58.000;   11.000
247.809; -114.250; -887.000; -691.000
247.951;  -12.325;  -75.000;  138.000
248.094;   25.725;  432.000;  308.000
248.236; -159.825;-1262.000;-1238.000
248.378;   -5.125; -356.000;  -81.000
248.521;  -18.700; -334.000; -337.000
248.663;  -36.000; -236.000; -267.000
248.806;  -37.575; -300.000; -266.000
248.948; -106.100; -886.000; -763.000
249.090;  -38.575; -428.000; -398.000
249.233;  -45.375; -344.000; -381.000
249.375;  -58.975; -474.000; -451.000
249.518;  -16.875;  -83.000; -133.000
249.660;   11.250; -103.000;    3.000
249.802; -176.700;-1303.000;-1189.000
249.945;  -81.250; -612.000; -540.000
250.087; -118.800; -834.000; -768.000
250.229;  -42.475; -362.000; -480.000
250.371;  -68.850; -494.000; -439.000
250.514;  -49.800; -310.000; -244.000
250.656;  -19.325;   69.000;  102.000
250.798; -119.075; -849.000; -800.000
250.940;  -62.300; -322.000; -322.000
251.083;  -24.125; -335.000; -111.000
251.225;   66.950;  338.000;  310.000
251.367;  -35.125; -274.000; -373.000
251.509;  -30.775; -265.000; -210.000
251.651;  -93.925; -731.000; -671.000
251.794;   59.100;  538.000;  632.000
251.936; -115.550; -821.000; -747.000
252.078;  -82.525; -540.000; -461.000
252.220;  -73.325; -645.000; -477.000
252.362;   93.625;  344.000;  462.000
252.504;  -63.925; -677.000; -584.000
252.646; -114.575; -875.000; -722.000
252.788;  -13.225;   14.000; -128.000
252.931;  -38.150; -257.000; -253.000
253.073;  -52.625; -376.000; -317.000
253.215;   -4.525;  141.000;  122.000
253.357;  -17.175;   82.000; -153.000
253.499;  -48.625; -374.000; -234.000
253.641;  -98.450; -749.000; -594.000
253.783;  -85.325; -609.000; -527.000
253.925;  -88.325; -586.000; -591.000
254.067; -104.025; -744.000; -667.000
254.209;  -20.900; -391.000; -259.000
254.351; -124.550; -865.000; -883.000
254.493;  -50.725; -441.000; -417.000
254.635; -136.025; -936.000; -818.000
254.777;  -81.575; -752.000; -687.000
254.918;  -57.700; -512.000; -430.000
255.060;  -62.125; -551.000; -395.000
255.202;  -37.975; -473.000; -261.000
255.344;  -77.425; -658.000; -455.000
255.486;  -77.350; -471.000; -406.000
255.628; -104.950; -780.000; -781.000
255.770;  -81.825; -676.000; -536.000
255.912;  -61.950; -559.000; -468.000
256.053;  -85.650; -730.000; -508.000
256.195;  163.800; 1008.000;  903.000
256.337; -110.525; -861.000; -595.000
256.479;   67.275;  532.000;  416.000
256.621;  -47.225; -394.000; -212.000
256.762;  -98.025; -789.000; -742.000
256.904;   51.675;  485.000;  487.000
257.046;  -37.600; -381.000; -271.000
257.188;  -60.150; -351.000; -264.000
257.329;  -82.975; -525.000; -464.000
257.471; -122.500; -939.000; -807.000
257.613;  -71.000; -584.000; -498.000
257.755; -143.650;-1073.000; -982.000
257.896;   32.925;  286.000;  392.000
258.038;  -65.500; -403.000; -352.000
258.180;  -45.750; -354.000; -279.000
258.321;  -83.075; -581.000; -457.000
258.463;   -8.575;  -71.000;  133.000
258.605;  -92.750; -562.000; -570.000
258.746; -113.275; -886.000; -772.000
258.888; -146.025;-1026.000;-1020.000
259.029;   22.950;  121.000;   -8.000
259.171;  -90.525; -614.000; -550.000
259.313;   -6.975;  -49.000;  -47.000
259.454;  -70.300; -536.000; -414.000
259.596;  -63.375; -483.000; -390.000
259.737;  -77.350; -590.000; -474.000
259.879;   43.950;  217.000;  311.000
260.020;   96.575;  901.000;  636.000
260.162;  -31.375; -146.000; -253.000
260.303; -124.100; -768.000; -687.000
260.445;  -91.800; -609.000; -613.000
260.586;   30.275;  392.000;  157.000
260.728;  -39.400; -360.000; -248.000
260.869;  -59.000; -350.000; -343.000
261.011;   88.975;  706.000;  537.000
261.152;  -62.425; -479.000; -319.000
261.293;  -81.400; -576.000; -595.000
261.435;  -28.575; -219.000; -184.000
261.576;  -59.725; -455.000; -325.000
261.718;   59.675;  420.000;  470.000
261.859; -135.200; -940.000; -949.000
262.000; -131.975; -951.000;-1016.000
262.142;  -32.500;  -52.000;  -60.000
262.283; -110.325; -808.000; -691.000
262.424;  -87.150; -666.000; -625.000
262.566; -168.725;-1161.000; -983.000
262.707; -115.800; -840.000; -830.000
262.848; -121.550; -769.000; -726.000
262.990;  -60.550; -362.000; -345.000
263.131;   77.925;  650.000;  681.000
263.272;   -6.975;  -61.000;  -41.000
263.413;  -99.475; -589.000; -561.000
263.555;  -67.775; -669.000; -143.000
263.696;  -74.875; -550.000; -641.000
263.837;  -63.650; -449.000; -551.000
263.978;    5.425;   -5.000;  -77.000
264.119;  -45.500; -283.000; -264.000
264.261; -119.150; -847.000; -630.000
264.402;   -2.200;   33.000;   40.000
264.543;  -87.225; -509.000; -524.000
264.684;  -11.500;   61.000;  -50.000
264.825;  -72.600; -816.000; -538.000
264.966;  -20.825;  -84.000;  -67.000
265.107; -112.325; -646.000; -670.000
265.248; -116.525; -825.000; -812.000
265.390;   -6.000;  152.000;   -9.000
265.531;  -25.425; -238.000; -107.000
265.672;  -95.250; -557.000; -630.000
265.813;   76.125;  563.000;  439.000
265.954; -146.825; -959.000; -940.000
266.095;  -18.225; -372.000; -322.000
266.236; -110.300; -686.000; -548.000
266.377;  -44.325; -243.000; -297.000
266.518;  -77.900; -619.000; -547.000
266.659;   25.850;  170.000;  268.000
266.800;   13.875;   83.000;   85.000
266.941;  -79.475; -487.000; -478.000
267.082;   45.525;  354.000;   99.000
267.223;  -59.675; -344.000; -273.000
267.364; -119.575; -892.000; -686.000
267.504;   -3.625;    3.000;  135.000
267.645;    5.500;  160.000;   67.000
267.786;  -26.150; -147.000;  -86.000
267.927;  -76.875; -473.000; -379.000
268.068;   -9.450; -186.000;  -61.000
268.209;  -48.900; -175.000; -413.000
268.350;  -64.325; -388.000; -532.000
268.490;  -85.600; -648.000; -521.000
268.631;   33.050;  127.000;  225.000
268.772; -116.000; -874.000; -647.000
268.913;  -54.625; -328.000; -476.000
269.054;  -22.025; -117.000;   12.000
269.194;  -54.725; -418.000; -402.000
269.335; -151.900;-1137.000;-1074.000
269.476;  -10.050;   33.000;  -35.000
269.617;  -55.500; -347.000; -392.000
269.757;  -84.650; -713.000; -646.000
269.898; -104.775; -856.000; -613.000
270.039;  -63.775; -415.000; -405.000
270.180; -144.200; -952.000; -816.000
270.320;  -26.700; -190.000; -250.000
