
Integration time [ms]: 100.000
Averaging Nr. [scans]: 40
Smoothing Nr. [pixels]: 0
Data measured with spectrometer [name]: 2101012U2
Wave   ;Sample   ;Dark     ;Reference
[nm]   ;[counts] ;[counts] ;[counts] 

197.733;   68.975;  516.000;  404.000
197.879;  -70.450; -610.000; -634.000
198.025;  -32.200; -475.000; -420.000
198.171;  -78.950; -602.000; -612.000
198.317;  -23.225; -401.000; -316.000
198.463;  -71.475; -655.000; -404.000
198.609;   30.975;  181.000; -137.000
198.755;  -83.575; -644.000; -410.000
198.901;  -59.200; -505.000; -424.000
199.047;  -66.100; -615.000; -488.000
199.193;  -30.825; -230.000; -468.000
199.339;  -44.275; -222.000; -369.000
199.485;   46.350;  330.000;  271.000
199.631;   13.350;  227.000;  310.000
199.777;  -36.750; -466.000; -398.000
199.923;  -60.475; -610.000; -424.000
200.069;   -1.025; -141.000;  -58.000
200.215;   57.925;  128.000;  453.000
200.361;   43.775;  243.000;  477.000
200.507;  -59.425; -600.000; -373.000
200.653;  -14.150; -371.000; -194.000
200.798;  -50.825; -215.000; -125.000
200.944;  -14.475; -146.000;  -41.000
201.090;   25.850;   61.000;  222.000
201.236;   12.450; -116.000; -158.000
201.382;  117.250;  874.000;  903.000
201.528;    8.475;  -58.000;  -48.000
201.674;  -33.600; -386.000; -293.000
201.819;  -52.425; -540.000; -439.000
201.965;  -78.675; -699.000; -447.000
202.111;  -20.725; -273.000; -226.000
202.257;  -40.150; -250.000; -238.000
202.402;   -8.850;   13.000;  -36.000
202.548;  -31.000; -169.000; -116.000
202.694;   89.150;  410.000; -183.000
202.840;  -80.700; -603.000; -531.000
202.985;  -60.725; -681.000; -639.000
203.131;  -98.050; -832.000; -666.000
203.277;  -15.625; -199.000; -262.000
203.423;  -58.250; -434.000; -520.000
203.568;  -36.100; -462.000; -237.000
203.714;  -69.875; -535.000; -542.000
203.860;  -77.975; -682.000; -641.000
204.005;   10.525;  112.000;  167.000
204.151;   86.300;  561.000;  556.000
204.296;  -41.175; -354.000; -221.000
204.442;  -63.525; -600.000; -547.000
204.588;  -79.800; -592.000; -579.000
204.733;   26.475;  178.000;  168.000
204.879; -139.075;-1018.000; -822.000
205.025;    5.925;  -99.000;  126.000
205.170;   -9.375;  -17.000;   94.000
205.316;   83.875;  438.000;  661.000
205.461;  -76.300; -698.000; -554.000
205.607;   84.275;  609.000;  665.000
205.752;  -75.700; -626.000; -551.000
205.898;  -42.200; -501.000; -391.000
206.043;  -64.875; -578.000; -506.000
206.189;  -23.175; -243.000; -285.000
206.334;   80.375;  554.000;  606.000
206.480;   96.575;  409.000;  239.000
206.625;  -82.750; -529.000; -552.000
206.771;  -33.400; -451.000; -373.000
206.916;  -39.125; -210.000; -537.000
207.062;  -68.075; -545.000; -591.000
207.207;  -59.000; -546.000; -443.000
207.353;   47.725;  185.000;  460.000
207.498;    5.275;  196.000;   85.000
207.643;  -47.950; -501.000; -370.000
207.789; -137.375;-1069.000; -910.000
207.934;  -75.900; -665.000; -713.000
208.080;  -23.025; -154.000;   66.000
208.225;    7.025;  -22.000;  -57.000
208.370;  -98.575; -727.000; -619.000
208.516;  -59.950; -741.000; -487.000
208.661;  -39.500; -127.000;  -69.000
208.806;  -17.300; -165.000; -171.000
208.952; -124.500;-1044.000; -731.000
209.097;   78.000;  378.000;  349.000
209.242;  -48.975; -307.000; -382.000
209.387;   75.225;  392.000;  350.000
209.533;  -50.750; -321.000; -350.000
209.678;   85.550;  472.000;  543.000
209.823;  -55.500; -408.000; -310.000
209.969;  -97.575; -860.000; -757.000
210.114; -119.175; -907.000; -719.000
210.259; -107.275; -939.000; -889.000
210.404;  -17.225; -171.000;  103.000
210.549;   20.450;  108.000;    3.000
210.695;  -18.225;   -3.000;  -95.000
210.840;   51.650;   94.000;   67.000
210.985;  -66.275; -484.000; -303.000
211.130;   64.875;  268.000;  406.000
211.275;   12.500;  207.000;  199.000
211.420;  -39.700; -300.000; -289.000
211.566;  -71.400; -536.000; -489.000
211.711;   26.775;  218.000;  157.000
211.856;  -66.200; -545.000; -519.000
212.001;   26.725;  151.000;   44.000
212.146;   22.225;  153.000;   49.000
212.291;  -13.350; -210.000; -186.000
212.436;  -37.850; -280.000;   -6.000
212.581;  -71.775; -685.000; -653.000
212.726;  -76.425; -487.000; -538.000
212.871;  -30.675; -552.000; -217.000
213.016; -152.700;-1172.000;-1029.000
213.161;   70.675;  406.000;  291.000
213.306;  -82.450; -435.000; -577.000
213.451;  -83.325; -778.000; -689.000
213.596;  -56.125; -455.000; -347.000
213.741;  -45.175; -448.000; -538.000
213.886;  -89.075; -498.000; -517.000
214.031;  -15.925; -294.000; -124.000
214.176;  -55.350; -408.000; -341.000
214.321;  -26.800; -296.000; -157.000
214.466;  -17.225; -163.000;  -43.000
214.611;   10.925;  -61.000;  -10.000
214.756; -103.950; -948.000; -858.000
214.901;  -26.825; -388.000; -226.000
215.046; -122.675; -797.000; -825.000
215.191;   26.575;  128.000;   35.000
215.336;  -31.275; -157.000;  -19.000
215.480;  -61.550; -684.000; -505.000
215.625;  -13.400; -175.000;  -19.000
215.770;  -63.400; -757.000; -662.000
215.915;  -12.750;   -5.000;  -97.000
216.060;   -7.725; -113.000;  -21.000
216.205; -109.700; -731.000; -779.000
216.349;  -60.400; -470.000; -533.000
216.494; -145.450; -939.000; -867.000
216.639; -100.075; -823.000; -888.000
216.784;  -93.725; -577.000; -525.000
216.929;   62.675;  392.000;  281.000
217.073;  -24.275; -244.000;  -31.000
217.218;   22.600;   78.000;  -47.000
217.363;  -76.700; -656.000; -618.000
217.507;  -80.425; -623.000; -588.000
217.652; -130.675; -845.000; -874.000
217.797;  -84.375; -708.000; -659.000
217.942; -117.925; -856.000; -720.000
218.086;   77.850;  608.000;  539.000
218.231;  -19.175; -174.000;  -26.000
218.376;  -24.275; -337.000; -229.000
218.520;   -8.025;  -41.000;   96.000
218.665;  -24.725; -338.000; -204.000
218.810;  -46.150; -275.000; -233.000
218.954;   24.675;  201.000;   35.000
219.099; -114.525; -713.000; -963.000
219.243;  -81.775; -589.000; -554.000
219.388;  -37.825; -264.000; -136.000
219.532;   -0.450; -116.000; -116.000
219.677;  -69.700; -564.000; -521.000
219.822;   19.475;   33.000;   89.000
219.966;   -7.050;   17.000;  -99.000
220.111;  -29.975; -328.000;  -40.000
220.255; -114.725; -797.000; -750.000
220.400;  -14.875; -180.000; -146.000
220.544;  -72.200; -516.000; -450.000
220.689;  -53.950; -422.000; -451.000
220.833;  -25.350; -123.000;  -58.000
220.978;  -47.575; -393.000; -563.000
221.122;   22.975;  319.000;  307.000
221.267; -113.775; -906.000; -837.000
221.411;  -76.325; -478.000; -394.000
221.555;    2.600; -104.000;  -23.000
221.700;  -60.300; -329.000; -222.000
221.844;   46.100;  255.000;  272.000
221.989;  -47.600; -328.000; -311.000
222.133;  -23.000; -289.000; -307.000
222.277;  -22.325;    5.000;   78.000
222.422;   21.875;  227.000;  113.000
222.566;  -43.925; -381.000; -214.000
222.711;  -45.475; -414.000; -479.000
222.855;  -73.050; -643.000; -586.000
222.999;  -69.100; -642.000; -717.000
223.144;  -28.125; -195.000; -194.000
223.288;   65.875;  423.000;  251.000
223.432;   15.875;  184.000;  230.000
223.576;   14.525;  152.000;  -21.000
223.721;   36.600;  364.000;  273.000
223.865;  -54.075; -472.000; -475.000
224.009;  204.800; 1673.000; 1631.000
224.153;  -65.625; -660.000; -671.000
224.298;  -74.100; -531.000; -489.000
224.442;   -2.675;  -74.000;  -33.000
224.586;  -10.675; -169.000; -106.000
224.730;  -94.875; -858.000; -670.000
224.875; -115.400; -739.000; -688.000
225.019;   10.575;  102.000;  188.000
225.163;   50.725;  208.000;  341.000
225.307;   35.350;   97.000;  -91.000
225.451;   31.850;  360.000;  481.000
225.595;   31.725;  264.000;  176.000
225.739;  -33.950; -170.000;  -94.000
225.884;    7.750;   86.000;    5.000
226.028; -111.300; -760.000; -626.000
226.172;  -27.125; -260.000; -273.000
226.316; -124.525; -941.000; -902.000
226.460;  -58.975; -645.000; -493.000
226.604;  -54.650; -406.000; -400.000
226.748;  -78.900; -836.000; -733.000
226.892;  -47.150; -227.000; -181.000
227.036;  -35.650; -537.000; -447.000
227.180;  -58.800; -551.000; -375.000
227.324;  -53.975; -561.000; -580.000
227.468; -112.350; -819.000; -717.000
227.612;   13.875;  242.000;  -28.000
227.756; -113.825; -845.000; -698.000
227.900;   56.525;  342.000;  441.000
228.044;  -63.850; -509.000; -290.000
228.188;   63.000;  448.000;  568.000
228.332;  -92.725; -546.000; -472.000
228.476;   -8.200; -223.000; -149.000
228.620;  -39.200; -210.000; -150.000
228.764;   75.750;  431.000;  349.000
228.908;  -32.325; -155.000;   30.000
229.052;  -46.600; -615.000; -528.000
229.195;  -24.150; -172.000;   13.000
229.339;  -16.275; -235.000; -305.000
229.483;  -42.950;    5.000; -162.000
229.627;    2.825; -156.000;  139.000
229.771;  -52.200; -218.000; -294.000
229.915;    2.375;  230.000;   79.000
230.059;  -98.500; -648.000; -663.000
230.202;  -41.900; -370.000; -317.000
230.346;  -31.225; -107.000;  107.000
230.490;  -66.675; -489.000; -521.000
230.634; -106.775; -736.000; -553.000
230.777;   79.075;  478.000;  509.000
230.921;  -58.675; -450.000; -359.000
231.065;  -44.325; -246.000; -286.000
231.209;   10.650;  261.000;  265.000
231.352;   35.175;   54.000;   40.000
231.496;    8.625;  568.000;  188.000
231.640;  -82.350; -693.000; -621.000
231.783;   64.325;  546.000;  525.000
231.927;  -38.325; -294.000; -365.000
232.071; -126.700; -962.000; -736.000
232.214; -107.800; -980.000; -764.000
232.358; -103.925; -683.000; -599.000
232.502;    7.050;  -19.000;    7.000
232.645; -143.025;-1090.000; -927.000
232.789;  -16.525; -257.000; -218.000
232.933;  -53.450; -407.000; -224.000
233.076; -122.175;-1038.000; -897.000
233.220; -120.650; -752.000; -777.000
233.363;  -57.950; -669.000; -477.000
233.507;   39.525;  371.000;  129.000
233.650;  -94.325; -764.000; -834.000
233.794;   51.300;  438.000;  461.000
233.938;  -44.900; -530.000; -362.000
234.081;  -37.275;  -93.000;   31.000
234.225;  -64.350; -631.000; -539.000
234.368; -129.700; -773.000; -723.000
234.512;  -24.600; -385.000; -299.000
234.655; -100.275; -582.000; -555.000
234.798;  -61.750; -493.000; -466.000
234.942; -127.125; -884.000;-1002.000
235.085;  -64.950; -651.000; -443.000
235.229;  -78.125; -405.000; -410.000
235.372;  -34.125; -247.000; -191.000
235.516;  -77.825; -397.000; -321.000
235.659;   17.000;   92.000;  121.000
235.802;  -16.650;  -38.000;  -22.000
235.946;   29.750;  335.000;  215.000
236.089;   22.675;  126.000;  250.000
236.233;   51.150;  275.000;  298.000
236.376;  -51.500; -235.000; -378.000
236.519;  -57.100; -297.000; -319.000
236.663;  -26.425; -215.000; -117.000
236.806; -127.325;-1029.000; -999.000
236.949;   56.525;  543.000;  431.000
237.092;   58.225;  412.000;  391.000
237.236;  -88.575; -589.000; -502.000
237.379;   52.050;  352.000;  428.000
237.522; -122.075; -879.000; -768.000
237.666;  -18.425; -271.000;   18.000
237.809; -125.200; -851.000; -823.000
237.952;   33.650;  469.000;  271.000
238.095;  -71.350; -447.000; -442.000
238.238;   81.425;  688.000;  700.000
238.382;  -13.000;  166.000;  103.000
238.525;  -66.350; -598.000; -511.000
238.668; -147.600;-1060.000; -985.000
238.811;  -73.625; -638.000; -643.000
238.954;  -66.050; -483.000; -334.000
239.097;   98.775;  617.000;  664.000
239.241;   22.650;  394.000;  326.000
239.384;  -28.400; -254.000; -214.000
239.527;  -61.225; -424.000; -224.000
239.670; -137.125; -994.000;-1091.000
239.813; -114.900; -696.000; -658.000
239.956;   84.725;  579.000;  473.000
240.099; -113.800; -778.000; -725.000
240.242;   56.150;  428.000;  432.000
240.385;   22.975;  466.000;  450.000
240.528;  -57.675; -706.000; -473.000
240.671;    6.525;  189.000;  134.000
240.814;  -23.400; -441.000; -158.000
240.957;  -99.725; -767.000; -578.000
241.100;  -91.625; -779.000; -755.000
241.243; -146.100;-1234.000; -893.000
241.386;  -59.075; -508.000; -379.000
241.529;  -92.975; -735.000; -547.000
241.672;  -60.550; -566.000; -495.000
241.815; -128.350; -832.000; -808.000
241.958;  -17.125; -125.000; -182.000
242.101;  -84.325; -545.000; -390.000
242.244;  -28.825; -270.000; -325.000
242.387;  -63.200; -304.000; -246.000
242.530;   64.700;  470.000;  134.000
242.673;  -46.325; -381.000; -309.000
242.815; -112.375; -925.000; -899.000
242.958;  -83.575; -482.000; -381.000
243.101;   10.250;  132.000;  187.000
243.244;  -92.800; -564.000; -521.000
243.387;  -35.050; -313.000; -316.000
243.530;  -96.275; -657.000; -674.000
243.672;    1.825;   43.000;  -92.000
243.815;  -52.400; -355.000; -283.000
243.958;  -11.375;   98.000;  -26.000
244.101;    2.375;   59.000;  -16.000
244.243;   -9.200;  -47.000;  101.000
244.386; -121.075; -761.000; -630.000
244.529;  -18.750; -132.000; -139.000
244.672; -147.175;-1154.000; -951.000
244.814;  -68.850; -621.000; -794.000
244.957;  -46.850; -380.000; -304.000
245.100;  -75.950; -489.000; -489.000
245.242;  -57.050; -387.000; -374.000
245.385;   -0.575;  -59.000;  -39.000
245.528; -132.800; -871.000; -705.000
245.670;   95.875;  612.000;  634.000
245.813;  -90.225; -599.000; -547.000
245.956;  -25.175; -324.000; -275.000
246.098;  -69.700; -508.000; -650.000
246.241;   13.275;  194.000;   48.000
246.383;  -14.150; -119.000;  -73.000
246.526;  -67.325; -454.000; -525.000
246.669; -125.700; -889.000; -780.000
246.811;   26.125;  172.000;   -1.000
246.954;  -71.575; -512.000; -426.000
247.096;  -12.550;  -84.000;   -6.000
247.239;  -75.725; -482.000; -445.000
247.381;  -50.800; -647.000; -488.000
247.524;   68.725;  645.000;  679.000
247.666;   -5.525;   58.000;   11.000
247.809; -134.150; -887.000; -691.000
247.951;  -12.175;  -75.000;  138.000
248.094;   23.325;  432.000;  308.000
248.236; -149.875;-1262.000;-1238.000
248.378;    5.125; -356.000;  -81.000
248.521;  -20.325; -334.000; -337.000
248.663;  -39.875; -236.000; -267.000
248.806;  -11.075; -300.000; -266.000
248.948; -100.525; -886.000; -763.000
249.090;  -29.225; -428.000; -398.000
249.233;  -51.400; -344.000; -381.000
249.375;  -60.700; -474.000; -451.000
249.518;  -17.550;  -83.000; -133.000
249.660;   11.825; -103.000;    3.000
249.802; -179.050;-1303.000;-1189.000
249.945;  -59.025; -612.000; -540.000
250.087; -122.825; -834.000; -768.000
250.229;  -49.600; -362.000; -480.000
250.371;  -89.675; -494.000; -439.000
250.514;  -45.525; -310.000; -244.000
250.656;  -16.400;   69.000;  102.000
250.798; -103.450; -849.000; -800.000
250.940;  -64.275; -322.000; -322.000
251.083;  -18.950; -335.000; -111.000
251.225;   45.225;  338.000;  310.000
251.367;  -39.325; -274.000; -373.000
251.509;  -42.375; -265.000; -210.000
251.651;  -93.500; -731.000; -671.000
251.794;   53.475;  538.000;  632.000
251.936; -102.500; -821.000; -747.000
252.078;  -92.675; -540.000; -461.000
252.220;  -61.250; -645.000; -477.000
252.362;   80.150;  344.000;  462.000
252.504;  -67.525; -677.000; -584.000
252.646; -113.550; -875.000; -722.000
252.788;    9.875;   14.000; -128.000
252.931;  -40.625; -257.000; -253.000
253.073;  -39.375; -376.000; -317.000
253.215;  -12.975;  141.000;  122.000
253.357;   -9.950;   82.000; -153.000
253.499;  -55.325; -374.000; -234.000
253.641;  -81.450; -749.000; -594.000
253.783; -103.975; -609.000; -527.000
253.925;  -75.725; -586.000; -591.000
254.067; -108.375; -744.000; -667.000
254.209;  -23.650; -391.000; -259.000
254.351; -153.900; -865.000; -883.000
254.493;  -44.150; -441.000; -417.000
254.635; -141.800; -936.000; -818.000
254.777;  -86.725; -752.000; -687.000
254.918;  -83.825; -512.000; -430.000
255.060;  -47.825; -551.000; -395.000
255.202;  -65.600; -473.000; -261.000
255.344;  -74.075; -658.000; -455.000
255.486;  -85.625; -471.000; -406.000
255.628;  -91.350; -780.000; -781.000
255.770;  -99.525; -676.000; -536.000
255.912;  -53.125; -559.000; -468.000
256.053; -103.375; -730.000; -508.000
256.195;  161.975; 1008.000;  903.000
256.337; -105.125; -861.000; -595.000
256.479;   70.575;  532.000;  416.000
256.621;  -51.475; -394.000; -212.000
256.762;  -90.275; -789.000; -742.000
256.904;   57.800;  485.000;  487.000
257.046;  -35.900; -381.000; -271.000
257.188;  -62.250; -351.000; -264.000
257.329;  -61.725; -525.000; -464.000
257.471; -122.450; -939.000; -807.000
257.613;  -57.325; -584.000; -498.000
257.755; -150.775;-1073.000; -982.000
257.896;   40.525;  286.000;  392.000
258.038;  -82.950; -403.000; -352.000
258.180;  -33.725; -354.000; -279.000
258.321;  -78.400; -581.000; -457.000
258.463;   12.300;  -71.000;  133.000
258.605;  -82.025; -562.000; -570.000
258.746;  -92.100; -886.000; -772.000
258.888; -160.425;-1026.000;-1020.000
259.029;   30.500;  121.000;   -8.000
259.171; -103.100; -614.000; -550.000
259.313;   18.400;  -49.000;  -47.000
259.454;  -90.725; -536.000; -414.000
259.596;  -43.400; -483.000; -390.000
259.737;  -77.375; -590.000; -474.000
259.879;   37.900;  217.000;  311.000
260.020;   76.000;  901.000;  636.000
260.162;  -32.125; -146.000; -253.000
260.303; -132.800; -768.000; -687.000
260.445;  -83.875; -609.000; -613.000
260.586;   17.975;  392.000;  157.000
260.728;  -37.625; -360.000; -248.000
260.869; -132.325; -350.000; -343.000
261.011;   80.725;  706.000;  537.000
261.152;  -71.850; -479.000; -319.000
261.293;  -74.100; -576.000; -595.000
261.435;  -36.200; -219.000; -184.000
261.576;  -44.600; -455.000; -325.000
261.718;   40.625;  420.000;  470.000
261.859; -132.600; -940.000; -949.000
262.000; -136.200; -951.000;-1016.000
262.142;  -14.275;  -52.000;  -60.000
262.283; -120.925; -808.000; -691.000
262.424;  -76.175; -666.000; -625.000
262.566; -159.650;-1161.000; -983.000
262.707; -106.350; -840.000; -830.000
262.848; -136.250; -769.000; -726.000
262.990;  -44.575; -362.000; -345.000
263.131;   73.875;  650.000;  681.000
263.272;    0.850;  -61.000;  -41.000
263.413;  -99.175; -589.000; -561.000
263.555;  -58.975; -669.000; -143.000
263.696;  -99.175; -550.000; -641.000
263.837;  -60.725; -449.000; -551.000
263.978;  -20.125;   -5.000;  -77.000
264.119;  -31.050; -283.000; -264.000
264.261; -137.550; -847.000; -630.000
264.402;   -9.625;   33.000;   40.000
264.543;  -90.900; -509.000; -524.000
264.684;    0.900;   61.000;  -50.000
264.825;  -90.800; -816.000; -538.000
264.966;    4.600;  -84.000;  -67.000
265.107; -116.775; -646.000; -670.000
265.248; -108.000; -825.000; -812.000
265.390;   -6.250;  152.000;   -9.000
265.531;  -17.225; -238.000; -107.000
265.672;  -88.450; -557.000; -630.000
265.813;   67.775;  563.000;  439.000
265.954; -154.700; -959.000; -940.000
266.095;  -16.025; -372.000; -322.000
266.236; -103.300; -686.000; -548.000
266.377;  -28.650; -243.000; -297.000
266.518;  -78.925; -619.000; -547.000
266.659;   37.250;  170.000;  268.000
266.800;   -0.400;   83.000;   85.000
266.941;  -64.300; -487.000; -478.000
267.082;   13.425;  354.000;   99.000
267.223;  -47.875; -344.000; -273.000
267.364; -115.150; -892.000; -686.000
267.504;   -6.100;    3.000;  135.000
267.645;   -8.225;  160.000;   67.000
267.786;  -26.150; -147.000;  -86.000
267.927;  -88.850; -473.000; -379.000
268.068;   -4.450; -186.000;  -61.000
268.209;  -59.000; -175.000; -413.000
268.350;  -61.950; -388.000; -532.000
268.490;  -97.375; -648.000; -521.000
268.631;   25.150;  127.000;  225.000
268.772; -116.625; -874.000; -647.000
268.913;  -41.675; -328.000; -476.000
269.054;  -24.500; -117.000;   12.000
269.194;  -43.575; -418.000; -402.000
269.335; -155.850;-1137.000;-1074.000
269.476;  -17.000;   33.000;  -35.000
269.617;  -67.625; -347.000; -392.000
269.757;  -92.800; -713.000; -646.000
269.898; -119.975; -856.000; -613.000
270.039;  -53.825; -415.000; -405.000
270.180; -149.450; -952.000; -816.000
270.320;  -21.625; -190.000; -250.000
