
Integration time [ms]: 200.000
Averaging Nr. [scans]: 10
Smoothing Nr. [pixels]: 0
Data measured with spectrometer [name]: 2101012U2
Wave   ;Sample   ;Dark     ;Reference
[nm]   ;[counts] ;[counts] ;[counts] 

197.733;  141.100;  516.000;  404.000
197.879; -175.800; -610.000; -634.000
198.025; -101.200; -475.000; -420.000
198.171; -169.200; -602.000; -612.000
198.317;  -68.400; -401.000; -316.000
198.463; -123.600; -655.000; -404.000
198.609;   39.400;  181.000; -137.000
198.755; -197.100; -644.000; -410.000
198.901; -141.000; -505.000; -424.000
199.047; -147.600; -615.000; -488.000
199.193;  -88.800; -230.000; -468.000
199.339; -120.800; -222.000; -369.000
199.485;   88.800;  330.000;  271.000
199.631;   29.400;  227.000;  310.000
199.777;  -91.800; -466.000; -398.000
199.923; -162.000; -610.000; -424.000
200.069;   16.200; -141.000;  -58.000
200.215;   97.000;  128.000;  453.000
200.361;   96.700;  243.000;  477.000
200.507; -163.700; -600.000; -373.000
200.653;  -33.600; -371.000; -194.000
200.798;  -80.400; -215.000; -125.000
200.944;  -22.300; -146.000;  -41.000
201.090;   82.600;   61.000;  222.000
201.236;    3.800; -116.000; -158.000
201.382;  226.800;  874.000;  903.000
201.528;    8.500;  -58.000;  -48.000
201.674; -112.500; -386.000; -293.000
201.819; -140.100; -540.000; -439.000
201.965; -180.600; -699.000; -447.000
202.111;  -25.500; -273.000; -226.000
202.257;  -98.900; -250.000; -238.000
202.402;   -2.000;   13.000;  -36.000
202.548;  -96.700; -169.000; -116.000
202.694;  162.500;  410.000; -183.000
202.840; -179.500; -603.000; -531.000
202.985; -193.900; -681.000; -639.000
203.131; -233.700; -832.000; -666.000
203.277;  -46.100; -199.000; -262.000
203.423; -127.300; -434.000; -520.000
203.568;  -69.000; -462.000; -237.000
203.714; -149.800; -535.000; -542.000
203.860; -178.100; -682.000; -641.000
204.005;   10.200;  112.000;  167.000
204.151;  174.500;  561.000;  556.000
204.296;  -75.900; -354.000; -221.000
204.442; -176.500; -600.000; -547.000
204.588; -164.400; -592.000; -579.000
204.733;   29.000;  178.000;  168.000
204.879; -294.000;-1018.000; -822.000
205.025;   22.000;  -99.000;  126.000
205.170;   -1.600;  -17.000;   94.000
205.316;  197.900;  438.000;  661.000
205.461; -210.900; -698.000; -554.000
205.607;  185.300;  609.000;  665.000
205.752; -166.500; -626.000; -551.000
205.898; -100.900; -501.000; -391.000
206.043; -155.200; -578.000; -506.000
206.189;  -92.900; -243.000; -285.000
206.334;  138.900;  554.000;  606.000
206.480;  160.700;  409.000;  239.000
206.625; -181.300; -529.000; -552.000
206.771; -104.400; -451.000; -373.000
206.916;  -85.000; -210.000; -537.000
207.062; -158.500; -545.000; -591.000
207.207; -147.500; -546.000; -443.000
207.353;  139.200;  185.000;  460.000
207.498;   20.700;  196.000;   85.000
207.643; -125.000; -501.000; -370.000
207.789; -295.800;-1069.000; -910.000
207.934; -221.000; -665.000; -713.000
208.080;  -31.200; -154.000;   66.000
208.225;  -41.900;  -22.000;  -57.000
208.370; -197.700; -727.000; -619.000
208.516; -148.800; -741.000; -487.000
208.661;  -87.200; -127.000;  -69.000
208.806;  -39.400; -165.000; -171.000
208.952; -285.700;-1044.000; -731.000
209.097;  157.300;  378.000;  349.000
209.242; -122.800; -307.000; -382.000
209.387;  116.900;  392.000;  350.000
209.533; -146.700; -321.000; -350.000
209.678;  184.400;  472.000;  543.000
209.823; -124.100; -408.000; -310.000
209.969; -229.400; -860.000; -757.000
210.114; -230.400; -907.000; -719.000
210.259; -222.500; -939.000; -889.000
210.404;  -19.600; -171.000;  103.000
210.549;   51.500;  108.000;    3.000
210.695;  -64.900;   -3.000;  -95.000
210.840;   68.000;   94.000;   67.000
210.985; -146.900; -484.000; -303.000
211.130;  145.600;  268.000;  406.000
211.275;   23.300;  207.000;  199.000
211.420; -114.400; -300.000; -289.000
211.566; -153.200; -536.000; -489.000
211.711;   66.700;  218.000;  157.000
211.856; -148.400; -545.000; -519.000
212.001;   18.000;  151.000;   44.000
212.146;   -0.600;  153.000;   49.000
212.291;  -30.200; -210.000; -186.000
212.436;  -59.100; -280.000;   -6.000
212.581; -173.300; -685.000; -653.000
212.726; -164.700; -487.000; -538.000
212.871; -124.900; -552.000; -217.000
213.016; -330.500;-1172.000;-1029.000
213.161;  121.600;  406.000;  291.000
213.306; -164.500; -435.000; -577.000
213.451; -198.300; -778.000; -689.000
213.596;  -97.500; -455.000; -347.000
213.741;  -83.600; -448.000; -538.000
213.886; -152.300; -498.000; -517.000
214.031;  -44.500; -294.000; -124.000
214.176; -115.100; -408.000; -341.000
214.321;  -33.400; -296.000; -157.000
214.466;  -72.800; -163.000;  -43.000
214.611;  -25.800;  -61.000;  -10.000
214.756; -278.500; -948.000; -858.000
214.901;  -41.700; -388.000; -226.000
215.046; -276.900; -797.000; -825.000
215.191;   56.300;  128.000;   35.000
215.336;   -7.600; -157.000;  -19.000
215.480; -140.500; -684.000; -505.000
215.625;  -28.800; -175.000;  -19.000
215.770; -173.800; -757.000; -662.000
215.915;  -34.400;   -5.000;  -97.000
216.060;   10.100; -113.000;  -21.000
216.205; -239.100; -731.000; -779.000
216.349; -158.800; -470.000; -533.000
216.494; -297.900; -939.000; -867.000
216.639; -232.900; -823.000; -888.000
216.784; -180.000; -577.000; -525.000
216.929;  102.200;  392.000;  281.000
217.073;  -10.500; -244.000;  -31.000
217.218;   35.100;   78.000;  -47.000
217.363; -175.000; -656.000; -618.000
217.507; -146.600; -623.000; -588.000
217.652; -293.600; -845.000; -874.000
217.797; -163.600; -708.000; -659.000
217.942; -236.000; -856.000; -720.000
218.086;  175.400;  608.000;  539.000
218.231;  -46.000; -174.000;  -26.000
218.376;  -76.100; -337.000; -229.000
218.520;  -20.800;  -41.000;   96.000
218.665;  -79.700; -338.000; -204.000
218.810;  -78.000; -275.000; -233.000
218.954;   47.700;  201.000;   35.000
219.099; -246.200; -713.000; -963.000
219.243; -158.000; -589.000; -554.000
219.388;  -70.200; -264.000; -136.000
219.532;  -12.900; -116.000; -116.000
219.677; -151.500; -564.000; -521.000
219.822;   12.500;   33.000;   89.000
219.966;  -23.300;   17.000;  -99.000
220.111;  -47.000; -328.000;  -40.000
220.255; -228.500; -797.000; -750.000
220.400;  -47.800; -180.000; -146.000
220.544; -149.100; -516.000; -450.000
220.689; -103.200; -422.000; -451.000
220.833;  -23.400; -123.000;  -58.000
220.978;  -82.300; -393.000; -563.000
221.122;   30.100;  319.000;  307.000
221.267; -225.900; -906.000; -837.000
221.411; -151.900; -478.000; -394.000
221.555;    8.200; -104.000;  -23.000
221.700; -107.900; -329.000; -222.000
221.844;   74.600;  255.000;  272.000
221.989;  -97.200; -328.000; -311.000
222.133;  -46.200; -289.000; -307.000
222.277;   -7.400;    5.000;   78.000
222.422;   63.100;  227.000;  113.000
222.566;  -93.800; -381.000; -214.000
222.711; -104.000; -414.000; -479.000
222.855; -158.400; -643.000; -586.000
222.999; -185.200; -642.000; -717.000
223.144;  -77.900; -195.000; -194.000
223.288;  131.200;  423.000;  251.000
223.432;   11.900;  184.000;  230.000
223.576;   71.400;  152.000;  -21.000
223.721;   66.000;  364.000;  273.000
223.865;  -96.200; -472.000; -475.000
224.009;  581.900; 1673.000; 1631.000
224.153; -150.700; -660.000; -671.000
224.298; -168.000; -531.000; -489.000
224.442;    5.000;  -74.000;  -33.000
224.586;  -68.500; -169.000; -106.000
224.730; -204.800; -858.000; -670.000
224.875; -231.700; -739.000; -688.000
225.019;   26.200;  102.000;  188.000
225.163;  110.700;  208.000;  341.000
225.307;   35.800;   97.000;  -91.000
225.451;  107.100;  360.000;  481.000
225.595;   84.600;  264.000;  176.000
225.739;  -44.300; -170.000;  -94.000
225.884;   18.700;   86.000;    5.000
226.028; -230.200; -760.000; -626.000
226.172;  -48.100; -260.000; -273.000
226.316; -259.800; -941.000; -902.000
226.460; -160.100; -645.000; -493.000
226.604; -137.200; -406.000; -400.000
226.748; -185.400; -836.000; -733.000
226.892;  -60.100; -227.000; -181.000
227.036;  -88.600; -537.000; -447.000
227.180; -130.400; -551.000; -375.000
227.324; -134.800; -561.000; -580.000
227.468; -254.300; -819.000; -717.000
227.612;   38.600;  242.000;  -28.000
227.756; -220.700; -845.000; -698.000
227.900;  127.900;  342.000;  441.000
228.044; -143.200; -509.000; -290.000
228.188;  151.400;  448.000;  568.000
228.332; -205.400; -546.000; -472.000
228.476;  -30.400; -223.000; -149.000
228.620;  -72.200; -210.000; -150.000
228.764;  161.600;  431.000;  349.000
228.908;  -56.400; -155.000;   30.000
229.052; -123.500; -615.000; -528.000
229.195;  -23.500; -172.000;   13.000
229.339;  -41.900; -235.000; -305.000
229.483;  -72.000;    5.000; -162.000
229.627;   -0.400; -156.000;  139.000
229.771; -114.000; -218.000; -294.000
229.915;   46.700;  230.000;   79.000
230.059; -179.100; -648.000; -663.000
230.202;  -69.900; -370.000; -317.000
230.346;  -36.700; -107.000;  107.000
230.490; -133.600; -489.000; -521.000
230.634; -252.600; -736.000; -553.000
230.777;  175.700;  478.000;  509.000
230.921; -140.800; -450.000; -359.000
231.065;  -63.700; -246.000; -286.000
231.209;   65.100;  261.000;  265.000
231.352;   55.800;   54.000;   40.000
231.496;   47.400;  568.000;  188.000
231.640; -174.700; -693.000; -621.000
231.783;  106.900;  546.000;  525.000
231.927;  -74.700; -294.000; -365.000
232.071; -266.100; -962.000; -736.000
232.214; -194.600; -980.000; -764.000
232.358; -227.800; -683.000; -599.000
232.502;   30.000;  -19.000;    7.000
232.645; -296.200;-1090.000; -927.000
232.789;  -31.200; -257.000; -218.000
232.933; -114.600; -407.000; -224.000
233.076; -263.800;-1038.000; -897.000
233.220; -214.200; -752.000; -777.000
233.363; -146.000; -669.000; -477.000
233.507;  107.300;  371.000;  129.000
233.650; -182.000; -764.000; -834.000
233.794;  104.400;  438.000;  461.000
233.938; -117.300; -530.000; -362.000
234.081;  -32.100;  -93.000;   31.000
234.225;  -99.200; -631.000; -539.000
234.368; -249.300; -773.000; -723.000
234.512;  -69.700; -385.000; -299.000
234.655; -179.200; -582.000; -555.000
234.798; -126.900; -493.000; -466.000
234.942; -274.200; -884.000;-1002.000
235.085; -142.800; -651.000; -443.000
235.229; -158.700; -405.000; -410.000
235.372;  -86.000; -247.000; -191.000
235.516; -170.200; -397.000; -321.000
235.659;   51.800;   92.000;  121.000
235.802;  -16.300;  -38.000;  -22.000
235.946;   47.500;  335.000;  215.000
236.089;   57.500;  126.000;  250.000
236.233;  127.500;  275.000;  298.000
236.376;  -93.100; -235.000; -378.000
236.519;  -98.700; -297.000; -319.000
236.663;  -46.200; -215.000; -117.000
236.806; -298.500;-1029.000; -999.000
236.949;   82.100;  543.000;  431.000
237.092;  130.700;  412.000;  391.000
237.236; -206.200; -589.000; -502.000
237.379;  155.100;  352.000;  428.000
237.522; -258.700; -879.000; -768.000
237.666;   10.500; -271.000;   18.000
237.809; -261.500; -851.000; -823.000
237.952;  104.900;  469.000;  271.000
238.095; -138.800; -447.000; -442.000
238.238;  156.500;  688.000;  700.000
238.382;    3.100;  166.000;  103.000
238.525; -121.300; -598.000; -511.000
238.668; -313.700;-1060.000; -985.000
238.811; -140.200; -638.000; -643.000
238.954; -127.800; -483.000; -334.000
239.097;  196.600;  617.000;  664.000
239.241;   76.600;  394.000;  326.000
239.384;  -30.700; -254.000; -214.000
239.527; -134.500; -424.000; -224.000
239.670; -281.700; -994.000;-1091.000
239.813; -228.800; -696.000; -658.000
239.956;  172.900;  579.000;  473.000
240.099; -209.100; -778.000; -725.000
240.242;  153.600;  428.000;  432.000
240.385;   89.400;  466.000;  450.000
240.528; -162.100; -706.000; -473.000
240.671;   32.300;  189.000;  134.000
240.814;  -84.000; -441.000; -158.000
240.957; -223.500; -767.000; -578.000
241.100; -182.100; -779.000; -755.000
241.243; -300.000;-1234.000; -893.000
241.386; -112.500; -508.000; -379.000
241.529; -205.300; -735.000; -547.000
241.672;  -86.600; -566.000; -495.000
241.815; -273.900; -832.000; -808.000
241.958;  -61.600; -125.000; -182.000
242.101; -183.200; -545.000; -390.000
242.244;  -63.400; -270.000; -325.000
242.387;  -66.100; -304.000; -246.000
242.530;  140.000;  470.000;  134.000
242.673;  -98.600; -381.000; -309.000
242.815; -233.600; -925.000; -899.000
242.958; -143.600; -482.000; -381.000
243.101;   35.100;  132.000;  187.000
243.244; -161.300; -564.000; -521.000
243.387;  -60.500; -313.000; -316.000
243.530; -235.000; -657.000; -674.000
243.672;   18.700;   43.000;  -92.000
243.815; -133.400; -355.000; -283.000
243.958;  -16.300;   98.000;  -26.000
244.101;   -9.300;   59.000;  -16.000
244.243;   -9.500;  -47.000;  101.000
244.386; -248.700; -761.000; -630.000
244.529;  -32.900; -132.000; -139.000
244.672; -342.700;-1154.000; -951.000
244.814; -202.900; -621.000; -794.000
244.957; -120.100; -380.000; -304.000
245.100; -143.600; -489.000; -489.000
245.242; -127.500; -387.000; -374.000
245.385;   21.000;  -59.000;  -39.000
245.528; -246.200; -871.000; -705.000
245.670;  223.900;  612.000;  634.000
245.813; -179.300; -599.000; -547.000
245.956;  -71.800; -324.000; -275.000
246.098; -156.300; -508.000; -650.000
246.241;   31.400;  194.000;   48.000
246.383;  -42.800; -119.000;  -73.000
246.526; -158.000; -454.000; -525.000
246.669; -256.600; -889.000; -780.000
246.811;   51.300;  172.000;   -1.000
246.954; -140.600; -512.000; -426.000
247.096;  -37.600;  -84.000;   -6.000
247.239; -135.900; -482.000; -445.000
247.381; -108.800; -647.000; -488.000
247.524;  183.500;  645.000;  679.000
247.666;  -22.500;   58.000;   11.000
247.809; -269.100; -887.000; -691.000
247.951;  -27.700;  -75.000;  138.000
248.094;   89.700;  432.000;  308.000
248.236; -317.400;-1262.000;-1238.000
248.378;    6.900; -356.000;  -81.000
248.521;  -37.600; -334.000; -337.000
248.663; -103.100; -236.000; -267.000
248.806;  -47.300; -300.000; -266.000
248.948; -184.400; -886.000; -763.000
249.090; -129.900; -428.000; -398.000
249.233; -126.300; -344.000; -381.000
249.375; -130.400; -474.000; -451.000
249.518;  -58.500;  -83.000; -133.000
249.660;  -23.200; -103.000;    3.000
249.802; -385.300;-1303.000;-1189.000
249.945; -160.400; -612.000; -540.000
250.087; -228.900; -834.000; -768.000
250.229;  -85.100; -362.000; -480.000
250.371; -158.300; -494.000; -439.000
250.514; -106.300; -310.000; -244.000
250.656;  -27.600;   69.000;  102.000
250.798; -219.500; -849.000; -800.000
250.940; -137.400; -322.000; -322.000
251.083;  -33.300; -335.000; -111.000
251.225;  127.700;  338.000;  310.000
251.367;  -71.600; -274.000; -373.000
251.509;  -32.700; -265.000; -210.000
251.651; -184.400; -731.000; -671.000
251.794;  106.000;  538.000;  632.000
251.936; -199.500; -821.000; -747.000
252.078; -136.700; -540.000; -461.000
252.220; -142.900; -645.000; -477.000
252.362;  179.700;  344.000;  462.000
252.504; -150.300; -677.000; -584.000
252.646; -248.900; -875.000; -722.000
252.788;    5.000;   14.000; -128.000
252.931;  -94.800; -257.000; -253.000
253.073;  -60.800; -376.000; -317.000
253.215;   11.000;  141.000;  122.000
253.357;  -12.500;   82.000; -153.000
253.499; -123.800; -374.000; -234.000
253.641; -174.900; -749.000; -594.000
253.783; -220.200; -609.000; -527.000
253.925; -142.100; -586.000; -591.000
254.067; -248.000; -744.000; -667.000
254.209;  -56.800; -391.000; -259.000
254.351; -291.100; -865.000; -883.000
254.493;  -99.300; -441.000; -417.000
254.635; -204.300; -936.000; -818.000
254.777; -175.000; -752.000; -687.000
254.918; -162.900; -512.000; -430.000
255.060;  -98.100; -551.000; -395.000
255.202; -152.000; -473.000; -261.000
255.344; -137.400; -658.000; -455.000
255.486; -151.500; -471.000; -406.000
255.628; -210.300; -780.000; -781.000
255.770; -208.900; -676.000; -536.000
255.912; -121.400; -559.000; -468.000
256.053; -181.800; -730.000; -508.000
256.195;  336.600; 1008.000;  903.000
256.337; -204.900; -861.000; -595.000
256.479;  140.800;  532.000;  416.000
256.621;  -93.900; -394.000; -212.000
256.762; -199.800; -789.000; -742.000
256.904;   95.200;  485.000;  487.000
257.046;  -85.000; -381.000; -271.000
257.188;  -88.000; -351.000; -264.000
257.329; -157.700; -525.000; -464.000
257.471; -234.900; -939.000; -807.000
257.613; -136.200; -584.000; -498.000
257.755; -316.600;-1073.000; -982.000
257.896;   91.600;  286.000;  392.000
258.038; -146.900; -403.000; -352.000
258.180;  -59.100; -354.000; -279.000
258.321; -166.300; -581.000; -457.000
258.463;   -2.800;  -71.000;  133.000
258.605; -180.100; -562.000; -570.000
258.746; -189.400; -886.000; -772.000
258.888; -320.800;-1026.000;-1020.000
259.029;   37.000;  121.000;   -8.000
259.171; -173.000; -614.000; -550.000
259.313;   36.600;  -49.000;  -47.000
259.454; -194.000; -536.000; -414.000
259.596; -103.700; -483.000; -390.000
259.737; -172.400; -590.000; -474.000
259.879;   96.000;  217.000;  311.000
260.020;  196.100;  901.000;  636.000
260.162;  -38.400; -146.000; -253.000
260.303; -241.300; -768.000; -687.000
260.445; -153.000; -609.000; -613.000
260.586;   63.400;  392.000;  157.000
260.728;  -80.900; -360.000; -248.000
260.869; -148.200; -350.000; -343.000
261.011;  214.600;  706.000;  537.000
261.152; -131.800; -479.000; -319.000
261.293; -132.000; -576.000; -595.000
261.435;  -81.000; -219.000; -184.000
261.576;  -70.400; -455.000; -325.000
261.718;  132.100;  420.000;  470.000
261.859; -275.000; -940.000; -949.000
262.000; -264.500; -951.000;-1016.000
262.142;  -22.600;  -52.000;  -60.000
262.283; -251.900; -808.000; -691.000
262.424; -167.700; -666.000; -625.000
262.566; -305.300;-1161.000; -983.000
262.707; -258.600; -840.000; -830.000
262.848; -256.500; -769.000; -726.000
262.990;  -86.500; -362.000; -345.000
263.131;  165.700;  650.000;  681.000
263.272;   12.900;  -61.000;  -41.000
263.413; -195.800; -589.000; -561.000
263.555; -109.800; -669.000; -143.000
263.696; -213.900; -550.000; -641.000
263.837; -114.300; -449.000; -551.000
263.978;   27.700;   -5.000;  -77.000
264.119;  -90.300; -283.000; -264.000
264.261; -217.400; -847.000; -630.000
264.402;   47.100;   33.000;   40.000
264.543; -154.900; -509.000; -524.000
264.684;  -26.100;   61.000;  -50.000
264.825; -148.600; -816.000; -538.000
264.966;    6.300;  -84.000;  -67.000
265.107; -253.400; -646.000; -670.000
265.248; -247.200; -825.000; -812.000
265.390;    1.000;  152.000;   -9.000
265.531;  -39.700; -238.000; -107.000
265.672; -181.400; -557.000; -630.000
265.813;  136.400;  563.000;  439.000
265.954; -303.100; -959.000; -940.000
266.095;    3.100; -372.000; -322.000
266.236; -204.000; -686.000; -548.000
266.377;  -79.300; -243.000; -297.000
266.518; -153.200; -619.000; -547.000
266.659;   59.600;  170.000;  268.000
266.800;   25.300;   83.000;   85.000
266.941; -141.200; -487.000; -478.000
267.082;    0.400;  354.000;   99.000
267.223;  -97.700; -344.000; -273.000
267.364; -243.000; -892.000; -686.000
267.504;  -33.300;    3.000;  135.000
267.645;   14.900;  160.000;   67.000
267.786;  -79.200; -147.000;  -86.000
267.927; -141.400; -473.000; -379.000
268.068;  -26.700; -186.000;  -61.000
268.209; -102.000; -175.000; -413.000
268.350; -137.700; -388.000; -532.000
268.490; -178.600; -648.000; -521.000
268.631;   93.800;  127.000;  225.000
268.772; -280.900; -874.000; -647.000
268.913;  -82.700; -328.000; -476.000
269.054;  -41.900; -117.000;   12.000
269.194;  -73.200; -418.000; -402.000
269.335; -322.300;-1137.000;-1074.000
269.476;  -17.300;   33.000;  -35.000
269.617; -125.600; -347.000; -392.000
269.757; -163.100; -713.000; -646.000
269.898; -230.900; -856.000; -613.000
270.039;  -88.900; -415.000; -405.000
270.180; -271.900; -952.000; -816.000
270.320;  -69.100; -190.000; -250.000
