
Integration time [ms]: 100.000
Averaging Nr. [scans]: 40
Smoothing Nr. [pixels]: 0
Data measured with spectrometer [name]: 2101012U2
Wave   ;Sample   ;Dark     ;Reference
[nm]   ;[counts] ;[counts] ;[counts] 

197.733;   67.600;  516.000;  404.000
197.879;  -72.500; -610.000; -634.000
198.025;  -43.375; -475.000; -420.000
198.171;  -71.475; -602.000; -612.000
198.317;  -49.700; -401.000; -316.000
198.463;  -64.225; -655.000; -404.000
198.609;   28.000;  181.000; -137.000
198.755;  -74.450; -644.000; -410.000
198.901;  -72.325; -505.000; -424.000
199.047;  -65.825; -615.000; -488.000
199.193;  -40.875; -230.000; -468.000
199.339;  -32.425; -222.000; -369.000
199.485;   32.225;  330.000;  271.000
199.631;   18.200;  227.000;  310.000
199.777;  -57.175; -466.000; -398.000
199.923;  -72.125; -610.000; -424.000
200.069;  -11.175; -141.000;  -58.000
200.215;   55.875;  128.000;  453.000
200.361;   40.450;  243.000;  477.000
200.507;  -54.075; -600.000; -373.000
200.653;  -30.950; -371.000; -194.000
200.798;  -39.800; -215.000; -125.000
200.944;  -14.750; -146.000;  -41.000
201.090;   41.125;   61.000;  222.000
201.236;  -13.600; -116.000; -158.000
201.382;  130.125;  874.000;  903.000
201.528;  -14.450;  -58.000;  -48.000
201.674;  -33.850; -386.000; -293.000
201.819;  -70.725; -540.000; -439.000
201.965;  -92.300; -699.000; -447.000
202.111;  -18.100; -273.000; -226.000
202.257;  -40.025; -250.000; -238.000
202.402;    1.925;   13.000;  -36.000
202.548;  -32.650; -169.000; -116.000
202.694;   91.400;  410.000; -183.000
202.840;  -82.375; -603.000; -531.000
202.985;  -83.650; -681.000; -639.000
203.131; -101.450; -832.000; -666.000
203.277;  -31.275; -199.000; -262.000
203.423;  -54.950; -434.000; -520.000
203.568;  -47.825; -462.000; -237.000
203.714;  -69.050; -535.000; -542.000
203.860;  -84.325; -682.000; -641.000
204.005;   17.650;  112.000;  167.000
204.151;   69.525;  561.000;  556.000
204.296;  -61.125; -354.000; -221.000
204.442;  -80.300; -600.000; -547.000
204.588;  -89.675; -592.000; -579.000
204.733;   12.125;  178.000;  168.000
204.879; -125.550;-1018.000; -822.000
205.025;   14.400;  -99.000;  126.000
205.170;    5.500;  -17.000;   94.000
205.316;   80.450;  438.000;  661.000
205.461;  -83.650; -698.000; -554.000
205.607;   77.175;  609.000;  665.000
205.752;  -75.700; -626.000; -551.000
205.898;  -42.775; -501.000; -391.000
206.043;  -59.850; -578.000; -506.000
206.189;  -45.550; -243.000; -285.000
206.334;   69.400;  554.000;  606.000
206.480;   73.300;  409.000;  239.000
206.625;  -80.750; -529.000; -552.000
206.771;  -44.075; -451.000; -373.000
206.916;  -31.375; -210.000; -537.000
207.062;  -63.775; -545.000; -591.000
207.207;  -53.425; -546.000; -443.000
207.353;   44.525;  185.000;  460.000
207.498;    8.100;  196.000;   85.000
207.643;  -53.350; -501.000; -370.000
207.789; -120.850;-1069.000; -910.000
207.934;  -87.750; -665.000; -713.000
208.080;  -30.200; -154.000;   66.000
208.225;  -10.925;  -22.000;  -57.000
208.370;  -80.975; -727.000; -619.000
208.516;  -71.900; -741.000; -487.000
208.661;  -33.000; -127.000;  -69.000
208.806;  -38.525; -165.000; -171.000
208.952; -125.250;-1044.000; -731.000
209.097;   68.325;  378.000;  349.000
209.242;  -51.025; -307.000; -382.000
209.387;   55.200;  392.000;  350.000
209.533;  -46.025; -321.000; -350.000
209.678;   75.450;  472.000;  543.000
209.823;  -60.350; -408.000; -310.000
209.969; -105.375; -860.000; -757.000
210.114;  -95.525; -907.000; -719.000
210.259; -106.125; -939.000; -889.000
210.404;    3.950; -171.000;  103.000
210.549;   18.250;  108.000;    3.000
210.695;   -6.975;   -3.000;  -95.000
210.840;   34.275;   94.000;   67.000
210.985;  -57.625; -484.000; -303.000
211.130;   71.950;  268.000;  406.000
211.275;   23.000;  207.000;  199.000
211.420;  -46.625; -300.000; -289.000
211.566;  -65.125; -536.000; -489.000
211.711;   31.250;  218.000;  157.000
211.856;  -62.375; -545.000; -519.000
212.001;   13.100;  151.000;   44.000
212.146;   29.200;  153.000;   49.000
212.291;  -41.825; -210.000; -186.000
212.436;  -27.550; -280.000;   -6.000
212.581;  -89.550; -685.000; -653.000
212.726;  -75.500; -487.000; -538.000
212.871;  -61.625; -552.000; -217.000
213.016; -149.350;-1172.000;-1029.000
213.161;   64.900;  406.000;  291.000
213.306;  -71.075; -435.000; -577.000
213.451;  -93.775; -778.000; -689.000
213.596;  -41.625; -455.000; -347.000
213.741;  -53.625; -448.000; -538.000
213.886;  -68.900; -498.000; -517.000
214.031;  -16.525; -294.000; -124.000
214.176;  -58.525; -408.000; -341.000
214.321;  -19.825; -296.000; -157.000
214.466;  -17.475; -163.000;  -43.000
214.611;  -10.200;  -61.000;  -10.000
214.756; -120.425; -948.000; -858.000
214.901;  -17.950; -388.000; -226.000
215.046; -123.050; -797.000; -825.000
215.191;   12.225;  128.000;   35.000
215.336;  -16.000; -157.000;  -19.000
215.480;  -75.550; -684.000; -505.000
215.625;  -12.750; -175.000;  -19.000
215.770;  -88.650; -757.000; -662.000
215.915;   -4.325;   -5.000;  -97.000
216.060;  -16.425; -113.000;  -21.000
216.205; -105.100; -731.000; -779.000
216.349;  -67.750; -470.000; -533.000
216.494; -133.900; -939.000; -867.000
216.639; -118.775; -823.000; -888.000
216.784;  -93.275; -577.000; -525.000
216.929;   36.400;  392.000;  281.000
217.073;   -6.675; -244.000;  -31.000
217.218;   14.300;   78.000;  -47.000
217.363;  -84.350; -656.000; -618.000
217.507;  -75.075; -623.000; -588.000
217.652; -123.150; -845.000; -874.000
217.797;  -89.275; -708.000; -659.000
217.942; -115.750; -856.000; -720.000
218.086;   70.225;  608.000;  539.000
218.231;  -23.050; -174.000;  -26.000
218.376;  -40.500; -337.000; -229.000
218.520;    2.150;  -41.000;   96.000
218.665;  -28.500; -338.000; -204.000
218.810;  -45.475; -275.000; -233.000
218.954;    2.400;  201.000;   35.000
219.099; -115.825; -713.000; -963.000
219.243;  -70.675; -589.000; -554.000
219.388;  -30.200; -264.000; -136.000
219.532;  -11.475; -116.000; -116.000
219.677;  -75.625; -564.000; -521.000
219.822;   10.725;   33.000;   89.000
219.966;   17.075;   17.000;  -99.000
220.111;  -39.950; -328.000;  -40.000
220.255;  -94.550; -797.000; -750.000
220.400;  -13.875; -180.000; -146.000
220.544;  -77.550; -516.000; -450.000
220.689;  -64.700; -422.000; -451.000
220.833;  -21.450; -123.000;  -58.000
220.978;  -47.525; -393.000; -563.000
221.122;   25.775;  319.000;  307.000
221.267; -117.825; -906.000; -837.000
221.411;  -54.825; -478.000; -394.000
221.555;   -7.200; -104.000;  -23.000
221.700;  -37.675; -329.000; -222.000
221.844;   29.600;  255.000;  272.000
221.989;  -40.675; -328.000; -311.000
222.133;  -45.750; -289.000; -307.000
222.277;   -8.175;    5.000;   78.000
222.422;   19.000;  227.000;  113.000
222.566;  -41.950; -381.000; -214.000
222.711;  -58.050; -414.000; -479.000
222.855;  -74.850; -643.000; -586.000
222.999;  -74.375; -642.000; -717.000
223.144;  -34.600; -195.000; -194.000
223.288;   68.625;  423.000;  251.000
223.432;   46.175;  184.000;  230.000
223.576;    9.250;  152.000;  -21.000
223.721;   42.200;  364.000;  273.000
223.865;  -62.650; -472.000; -475.000
224.009;  261.975; 1673.000; 1631.000
224.153;  -87.725; -660.000; -671.000
224.298;  -82.075; -531.000; -489.000
224.442;  -13.825;  -74.000;  -33.000
224.586;  -13.550; -169.000; -106.000
224.730; -109.025; -858.000; -670.000
224.875;  -96.400; -739.000; -688.000
225.019;   12.225;  102.000;  188.000
225.163;   57.675;  208.000;  341.000
225.307;   22.025;   97.000;  -91.000
225.451;   55.125;  360.000;  481.000
225.595;   13.475;  264.000;  176.000
225.739;   -8.800; -170.000;  -94.000
225.884;    6.125;   86.000;    5.000
226.028;  -93.450; -760.000; -626.000
226.172;  -26.225; -260.000; -273.000
226.316; -120.750; -941.000; -902.000
226.460;  -63.125; -645.000; -493.000
226.604;  -37.750; -406.000; -400.000
226.748;  -94.800; -836.000; -733.000
226.892;  -38.175; -227.000; -181.000
227.036;  -44.425; -537.000; -447.000
227.180;  -57.575; -551.000; -375.000
227.324;  -71.375; -561.000; -580.000
227.468; -104.925; -819.000; -717.000
227.612;    8.600;  242.000;  -28.000
227.756;  -98.925; -845.000; -698.000
227.900;   54.650;  342.000;  441.000
228.044;  -64.175; -509.000; -290.000
228.188;   50.675;  448.000;  568.000
228.332;  -86.400; -546.000; -472.000
228.476;  -21.975; -223.000; -149.000
228.620;  -38.900; -210.000; -150.000
228.764;   64.600;  431.000;  349.000
228.908;  -29.425; -155.000;   30.000
229.052;  -58.050; -615.000; -528.000
229.195;  -26.625; -172.000;   13.000
229.339;  -32.025; -235.000; -305.000
229.483;  -13.375;    5.000; -162.000
229.627;   -5.525; -156.000;  139.000
229.771;  -39.225; -218.000; -294.000
229.915;    7.400;  230.000;   79.000
230.059;  -88.200; -648.000; -663.000
230.202;  -35.075; -370.000; -317.000
230.346;  -14.075; -107.000;  107.000
230.490;  -64.400; -489.000; -521.000
230.634; -104.200; -736.000; -553.000
230.777;   66.425;  478.000;  509.000
230.921;  -44.500; -450.000; -359.000
231.065;  -56.375; -246.000; -286.000
231.209;   25.825;  261.000;  265.000
231.352;   21.050;   54.000;   40.000
231.496;   22.700;  568.000;  188.000
231.640;  -76.400; -693.000; -621.000
231.783;   63.425;  546.000;  525.000
231.927;  -41.250; -294.000; -365.000
232.071; -125.100; -962.000; -736.000
232.214; -124.050; -980.000; -764.000
232.358; -101.725; -683.000; -599.000
232.502;   12.850;  -19.000;    7.000
232.645; -127.775;-1090.000; -927.000
232.789;  -21.300; -257.000; -218.000
232.933;  -43.400; -407.000; -224.000
233.076; -121.225;-1038.000; -897.000
233.220; -108.125; -752.000; -777.000
233.363;  -69.100; -669.000; -477.000
233.507;   49.825;  371.000;  129.000
233.650;  -89.650; -764.000; -834.000
233.794;   46.325;  438.000;  461.000
233.938;  -76.350; -530.000; -362.000
234.081;  -23.300;  -93.000;   31.000
234.225;  -67.125; -631.000; -539.000
234.368; -119.550; -773.000; -723.000
234.512;  -36.550; -385.000; -299.000
234.655;  -91.875; -582.000; -555.000
234.798;  -61.725; -493.000; -466.000
234.942; -132.975; -884.000;-1002.000
235.085;  -84.450; -651.000; -443.000
235.229;  -73.650; -405.000; -410.000
235.372;  -50.075; -247.000; -191.000
235.516;  -66.875; -397.000; -321.000
235.659;   19.400;   92.000;  121.000
235.802;  -14.625;  -38.000;  -22.000
235.946;   27.025;  335.000;  215.000
236.089;   14.950;  126.000;  250.000
236.233;   57.200;  275.000;  298.000
236.376;  -41.575; -235.000; -378.000
236.519;  -37.850; -297.000; -319.000
236.663;  -26.800; -215.000; -117.000
236.806; -139.325;-1029.000; -999.000
236.949;   61.925;  543.000;  431.000
237.092;   51.225;  412.000;  391.000
237.236;  -82.200; -589.000; -502.000
237.379;   67.450;  352.000;  428.000
237.522; -117.750; -879.000; -768.000
237.666;  -26.450; -271.000;   18.000
237.809; -132.000; -851.000; -823.000
237.952;   30.075;  469.000;  271.000
238.095;  -72.225; -447.000; -442.000
238.238;   78.375;  688.000;  700.000
238.382;    1.325;  166.000;  103.000
238.525;  -81.900; -598.000; -511.000
238.668; -132.875;-1060.000; -985.000
238.811;  -94.650; -638.000; -643.000
238.954;  -66.250; -483.000; -334.000
239.097;   84.300;  617.000;  664.000
239.241;   12.800;  394.000;  326.000
239.384;  -36.375; -254.000; -214.000
239.527;  -61.450; -424.000; -224.000
239.670; -139.600; -994.000;-1091.000
239.813;  -93.000; -696.000; -658.000
239.956;   60.600;  579.000;  473.000
240.099;  -99.375; -778.000; -725.000
240.242;   58.925;  428.000;  432.000
240.385;   43.725;  466.000;  450.000
240.528;  -69.875; -706.000; -473.000
240.671;   -1.525;  189.000;  134.000
240.814;  -46.550; -441.000; -158.000
240.957;  -94.200; -767.000; -578.000
241.100;  -99.425; -779.000; -755.000
241.243; -142.925;-1234.000; -893.000
241.386;  -65.625; -508.000; -379.000
241.529;  -76.450; -735.000; -547.000
241.672;  -69.575; -566.000; -495.000
241.815; -112.050; -832.000; -808.000
241.958;  -34.375; -125.000; -182.000
242.101;  -72.000; -545.000; -390.000
242.244;  -34.275; -270.000; -325.000
242.387;  -44.750; -304.000; -246.000
242.530;   38.325;  470.000;  134.000
242.673;  -36.950; -381.000; -309.000
242.815; -121.300; -925.000; -899.000
242.958;  -76.325; -482.000; -381.000
243.101;   26.000;  132.000;  187.000
243.244;  -71.775; -564.000; -521.000
243.387;  -46.175; -313.000; -316.000
243.530;  -98.425; -657.000; -674.000
243.672;    5.500;   43.000;  -92.000
243.815;  -57.200; -355.000; -283.000
243.958;   -5.175;   98.000;  -26.000
244.101;   -6.075;   59.000;  -16.000
244.243;  -21.300;  -47.000;  101.000
244.386; -114.625; -761.000; -630.000
244.529;  -29.025; -132.000; -139.000
244.672; -150.025;-1154.000; -951.000
244.814; -107.000; -621.000; -794.000
244.957;  -34.525; -380.000; -304.000
245.100;  -72.525; -489.000; -489.000
245.242;  -60.825; -387.000; -374.000
245.385;  -16.275;  -59.000;  -39.000
245.528; -115.675; -871.000; -705.000
245.670;   70.925;  612.000;  634.000
245.813;  -81.175; -599.000; -547.000
245.956;  -34.350; -324.000; -275.000
246.098;  -61.650; -508.000; -650.000
246.241;    5.050;  194.000;   48.000
246.383;  -19.725; -119.000;  -73.000
246.526;  -71.700; -454.000; -525.000
246.669; -114.325; -889.000; -780.000
246.811;   23.675;  172.000;   -1.000
246.954;  -62.725; -512.000; -426.000
247.096;  -24.550;  -84.000;   -6.000
247.239;  -67.375; -482.000; -445.000
247.381;  -77.450; -647.000; -488.000
247.524;   77.800;  645.000;  679.000
247.666;   -3.150;   58.000;   11.000
247.809; -117.775; -887.000; -691.000
247.951;  -22.175;  -75.000;  138.000
248.094;   35.350;  432.000;  308.000
248.236; -156.900;-1262.000;-1238.000
248.378;   13.075; -356.000;  -81.000
248.521;  -20.600; -334.000; -337.000
248.663;  -38.650; -236.000; -267.000
248.806;  -20.450; -300.000; -266.000
248.948;  -90.300; -886.000; -763.000
249.090;  -32.675; -428.000; -398.000
249.233;  -47.075; -344.000; -381.000
249.375;  -73.425; -474.000; -451.000
249.518;  -13.375;  -83.000; -133.000
249.660;   -3.600; -103.000;    3.000
249.802; -150.225;-1303.000;-1189.000
249.945;  -77.050; -612.000; -540.000
250.087; -107.925; -834.000; -768.000
250.229;  -50.175; -362.000; -480.000
250.371;  -79.600; -494.000; -439.000
250.514;  -44.225; -310.000; -244.000
250.656;  -32.350;   69.000;  102.000
250.798; -118.925; -849.000; -800.000
250.940;  -73.825; -322.000; -322.000
251.083;  -23.125; -335.000; -111.000
251.225;   70.950;  338.000;  310.000
251.367;  -42.075; -274.000; -373.000
251.509;  -36.250; -265.000; -210.000
251.651;  -83.950; -731.000; -671.000
251.794;   52.350;  538.000;  632.000
251.936; -110.975; -821.000; -747.000
252.078;  -67.800; -540.000; -461.000
252.220;  -63.025; -645.000; -477.000
252.362;   85.025;  344.000;  462.000
252.504;  -61.475; -677.000; -584.000
252.646; -119.650; -875.000; -722.000
252.788;   -5.825;   14.000; -128.000
252.931;  -29.200; -257.000; -253.000
253.073;  -49.625; -376.000; -317.000
253.215;   -9.725;  141.000;  122.000
253.357;  -13.600;   82.000; -153.000
253.499;  -38.650; -374.000; -234.000
253.641;  -88.700; -749.000; -594.000
253.783;  -85.175; -609.000; -527.000
253.925;  -83.075; -586.000; -591.000
254.067; -109.950; -744.000; -667.000
254.209;  -30.425; -391.000; -259.000
254.351; -123.425; -865.000; -883.000
254.493;  -72.100; -441.000; -417.000
254.635; -129.675; -936.000; -818.000
254.777; -100.150; -752.000; -687.000
254.918;  -58.775; -512.000; -430.000
255.060;  -54.425; -551.000; -395.000
255.202;  -50.350; -473.000; -261.000
255.344;  -82.225; -658.000; -455.000
255.486;  -76.850; -471.000; -406.000
255.628; -112.625; -780.000; -781.000
255.770;  -98.175; -676.000; -536.000
255.912;  -54.250; -559.000; -468.000
256.053;  -98.325; -730.000; -508.000
256.195;  143.375; 1008.000;  903.000
256.337;  -98.600; -861.000; -595.000
256.479;   53.800;  532.000;  416.000
256.621;  -47.625; -394.000; -212.000
256.762; -106.975; -789.000; -742.000
256.904;   65.775;  485.000;  487.000
257.046;  -54.425; -381.000; -271.000
257.188;  -47.100; -351.000; -264.000
257.329;  -68.850; -525.000; -464.000
257.471; -111.100; -939.000; -807.000
257.613;  -65.300; -584.000; -498.000
257.755; -140.150;-1073.000; -982.000
257.896;   27.975;  286.000;  392.000
258.038;  -72.175; -403.000; -352.000
258.180;  -48.300; -354.000; -279.000
258.321;  -77.950; -581.000; -457.000
258.463;  -13.900;  -71.000;  133.000
258.605;  -79.125; -562.000; -570.000
258.746; -108.425; -886.000; -772.000
258.888; -155.200;-1026.000;-1020.000
259.029;    9.950;  121.000;   -8.000
259.171;  -88.800; -614.000; -550.000
259.313;  -11.950;  -49.000;  -47.000
259.454;  -77.150; -536.000; -414.000
259.596;  -64.275; -483.000; -390.000
259.737;  -74.600; -590.000; -474.000
259.879;   36.375;  217.000;  311.000
260.020;   92.425;  901.000;  636.000
260.162;  -28.400; -146.000; -253.000
260.303; -104.575; -768.000; -687.000
260.445;  -90.725; -609.000; -613.000
260.586;   21.825;  392.000;  157.000
260.728;  -42.050; -360.000; -248.000
260.869; -128.850; -350.000; -343.000
261.011;   84.525;  706.000;  537.000
261.152;  -71.575; -479.000; -319.000
261.293;  -74.250; -576.000; -595.000
261.435;  -36.825; -219.000; -184.000
261.576;  -54.875; -455.000; -325.000
261.718;   55.525;  420.000;  470.000
261.859; -126.525; -940.000; -949.000
262.000; -128.750; -951.000;-1016.000
262.142;  -28.175;  -52.000;  -60.000
262.283; -110.575; -808.000; -691.000
262.424;  -85.950; -666.000; -625.000
262.566; -144.000;-1161.000; -983.000
262.707; -120.025; -840.000; -830.000
262.848; -124.400; -769.000; -726.000
262.990;  -61.725; -362.000; -345.000
263.131;   74.850;  650.000;  681.000
263.272;  -16.250;  -61.000;  -41.000
263.413; -100.850; -589.000; -561.000
263.555;  -73.500; -669.000; -143.000
263.696;  -93.475; -550.000; -641.000
263.837;  -51.625; -449.000; -551.000
263.978;   -2.125;   -5.000;  -77.000
264.119;  -49.100; -283.000; -264.000
264.261; -109.175; -847.000; -630.000
264.402;   -4.050;   33.000;   40.000
264.543;  -73.000; -509.000; -524.000
264.684;  -13.400;   61.000;  -50.000
264.825;  -78.475; -816.000; -538.000
264.966;  -13.500;  -84.000;  -67.000
265.107; -107.925; -646.000; -670.000
265.248; -124.950; -825.000; -812.000
265.390;    1.100;  152.000;   -9.000
265.531;  -29.200; -238.000; -107.000
265.672;  -97.725; -557.000; -630.000
265.813;   61.050;  563.000;  439.000
265.954; -135.500; -959.000; -940.000
266.095;  -17.125; -372.000; -322.000
266.236;  -93.275; -686.000; -548.000
266.377;  -44.300; -243.000; -297.000
266.518;  -70.025; -619.000; -547.000
266.659;   27.700;  170.000;  268.000
266.800;    7.125;   83.000;   85.000
266.941;  -81.175; -487.000; -478.000
267.082;   11.475;  354.000;   99.000
267.223;  -58.675; -344.000; -273.000
267.364; -125.400; -892.000; -686.000
267.504;  -23.475;    3.000;  135.000
267.645;   -0.600;  160.000;   67.000
267.786;  -38.425; -147.000;  -86.000
267.927;  -69.625; -473.000; -379.000
268.068;  -22.800; -186.000;  -61.000
268.209;  -46.625; -175.000; -413.000
268.350;  -65.275; -388.000; -532.000
268.490;  -90.300; -648.000; -521.000
268.631;   33.475;  127.000;  225.000
268.772; -104.575; -874.000; -647.000
268.913;  -44.800; -328.000; -476.000
269.054;  -14.650; -117.000;   12.000
269.194;  -58.600; -418.000; -402.000
269.335; -159.175;-1137.000;-1074.000
269.476;  -25.450;   33.000;  -35.000
269.617;  -40.500; -347.000; -392.000
269.757;  -93.875; -713.000; -646.000
269.898; -108.625; -856.000; -613.000
270.039;  -67.400; -415.000; -405.000
270.180; -133.825; -952.000; -816.000
270.320;  -38.100; -190.000; -250.000
