
Integration time [ms]: 100.000
Averaging Nr. [scans]: 40
Smoothing Nr. [pixels]: 0
Data measured with spectrometer [name]: 2101012U2
Wave   ;Sample   ;Dark     ;Reference
[nm]   ;[counts] ;[counts] ;[counts] 

197.733;   69.025;  516.000;  404.000
197.879;  -69.525; -610.000; -634.000
198.025;  -52.100; -475.000; -420.000
198.171;  -65.475; -602.000; -612.000
198.317;  -24.525; -401.000; -316.000
198.463;  -53.400; -655.000; -404.000
198.609;   32.050;  181.000; -137.000
198.755;  -71.325; -644.000; -410.000
198.901;  -73.975; -505.000; -424.000
199.047;  -64.525; -615.000; -488.000
199.193;  -37.725; -230.000; -468.000
199.339;  -41.300; -222.000; -369.000
199.485;   50.225;  330.000;  271.000
199.631;   25.425;  227.000;  310.000
199.777;  -53.725; -466.000; -398.000
199.923;  -64.975; -610.000; -424.000
200.069;   11.900; -141.000;  -58.000
200.215;   65.800;  128.000;  453.000
200.361;   41.300;  243.000;  477.000
200.507;  -52.850; -600.000; -373.000
200.653;  -21.325; -371.000; -194.000
200.798;  -35.700; -215.000; -125.000
200.944;   -3.850; -146.000;  -41.000
201.090;   48.475;   61.000;  222.000
201.236;   -2.725; -116.000; -158.000
201.382;  153.525;  874.000;  903.000
201.528;   14.225;  -58.000;  -48.000
201.674;  -30.425; -386.000; -293.000
201.819;  -65.600; -540.000; -439.000
201.965;  -66.825; -699.000; -447.000
202.111;  -20.450; -273.000; -226.000
202.257;  -32.600; -250.000; -238.000
202.402;   12.875;   13.000;  -36.000
202.548;  -19.700; -169.000; -116.000
202.694;   81.125;  410.000; -183.000
202.840;  -67.725; -603.000; -531.000
202.985;  -78.650; -681.000; -639.000
203.131;  -90.025; -832.000; -666.000
203.277;  -20.200; -199.000; -262.000
203.423;  -46.100; -434.000; -520.000
203.568;  -36.750; -462.000; -237.000
203.714;  -55.225; -535.000; -542.000
203.860;  -75.050; -682.000; -641.000
204.005;   20.325;  112.000;  167.000
204.151;   70.875;  561.000;  556.000
204.296;  -26.475; -354.000; -221.000
204.442;  -71.650; -600.000; -547.000
204.588;  -70.600; -592.000; -579.000
204.733;   37.825;  178.000;  168.000
204.879; -130.725;-1018.000; -822.000
205.025;    4.400;  -99.000;  126.000
205.170;    8.725;  -17.000;   94.000
205.316;   92.450;  438.000;  661.000
205.461;  -70.675; -698.000; -554.000
205.607;   82.525;  609.000;  665.000
205.752;  -79.375; -626.000; -551.000
205.898;  -61.850; -501.000; -391.000
206.043;  -61.825; -578.000; -506.000
206.189;  -42.475; -243.000; -285.000
206.334;   97.775;  554.000;  606.000
206.480;   81.850;  409.000;  239.000
206.625;  -80.125; -529.000; -552.000
206.771;  -43.300; -451.000; -373.000
206.916;  -20.800; -210.000; -537.000
207.062;  -65.725; -545.000; -591.000
207.207;  -58.200; -546.000; -443.000
207.353;   62.475;  185.000;  460.000
207.498;    5.400;  196.000;   85.000
207.643;  -44.250; -501.000; -370.000
207.789; -107.900;-1069.000; -910.000
207.934;  -89.175; -665.000; -713.000
208.080;  -23.550; -154.000;   66.000
208.225;  -15.075;  -22.000;  -57.000
208.370;  -83.875; -727.000; -619.000
208.516;  -82.400; -741.000; -487.000
208.661;  -27.200; -127.000;  -69.000
208.806;  -30.025; -165.000; -171.000
208.952; -122.550;-1044.000; -731.000
209.097;   71.850;  378.000;  349.000
209.242;  -39.525; -307.000; -382.000
209.387;   64.175;  392.000;  350.000
209.533;  -48.250; -321.000; -350.000
209.678;   65.250;  472.000;  543.000
209.823;  -62.575; -408.000; -310.000
209.969; -102.550; -860.000; -757.000
210.114; -102.225; -907.000; -719.000
210.259; -117.225; -939.000; -889.000
210.404;    2.375; -171.000;  103.000
210.549;   26.600;  108.000;    3.000
210.695;  -12.600;   -3.000;  -95.000
210.840;   41.875;   94.000;   67.000
210.985;  -59.800; -484.000; -303.000
211.130;   71.350;  268.000;  406.000
211.275;   15.275;  207.000;  199.000
211.420;  -47.600; -300.000; -289.000
211.566;  -68.225; -536.000; -489.000
211.711;   26.175;  218.000;  157.000
211.856;  -67.600; -545.000; -519.000
212.001;   13.925;  151.000;   44.000
212.146;   39.675;  153.000;   49.000
212.291;  -34.625; -210.000; -186.000
212.436;  -25.175; -280.000;   -6.000
212.581;  -86.500; -685.000; -653.000
212.726;  -76.825; -487.000; -538.000
212.871;  -47.650; -552.000; -217.000
213.016; -145.875;-1172.000;-1029.000
213.161;   68.775;  406.000;  291.000
213.306;  -77.600; -435.000; -577.000
213.451;  -92.925; -778.000; -689.000
213.596;  -40.000; -455.000; -347.000
213.741;  -68.200; -448.000; -538.000
213.886;  -73.700; -498.000; -517.000
214.031;  -24.425; -294.000; -124.000
214.176;  -51.125; -408.000; -341.000
214.321;  -16.375; -296.000; -157.000
214.466;  -12.625; -163.000;  -43.000
214.611;    0.675;  -61.000;  -10.000
214.756; -120.600; -948.000; -858.000
214.901;  -14.925; -388.000; -226.000
215.046; -122.775; -797.000; -825.000
215.191;   15.175;  128.000;   35.000
215.336;  -12.375; -157.000;  -19.000
215.480;  -64.250; -684.000; -505.000
215.625;   -2.475; -175.000;  -19.000
215.770;  -85.100; -757.000; -662.000
215.915;   -3.875;   -5.000;  -97.000
216.060;   -5.950; -113.000;  -21.000
216.205;  -98.600; -731.000; -779.000
216.349;  -82.675; -470.000; -533.000
216.494; -138.875; -939.000; -867.000
216.639; -122.125; -823.000; -888.000
216.784;  -83.750; -577.000; -525.000
216.929;   45.275;  392.000;  281.000
217.073;  -13.350; -244.000;  -31.000
217.218;    7.850;   78.000;  -47.000
217.363;  -90.350; -656.000; -618.000
217.507;  -69.450; -623.000; -588.000
217.652; -117.775; -845.000; -874.000
217.797; -103.975; -708.000; -659.000
217.942; -106.600; -856.000; -720.000
218.086;   78.325;  608.000;  539.000
218.231;   -8.125; -174.000;  -26.000
218.376;  -30.350; -337.000; -229.000
218.520;   18.475;  -41.000;   96.000
218.665;  -39.950; -338.000; -204.000
218.810;  -41.125; -275.000; -233.000
218.954;   27.850;  201.000;   35.000
219.099; -107.850; -713.000; -963.000
219.243;  -69.400; -589.000; -554.000
219.388;  -10.525; -264.000; -136.000
219.532;    0.225; -116.000; -116.000
219.677;  -77.200; -564.000; -521.000
219.822;    1.000;   33.000;   89.000
219.966;   10.950;   17.000;  -99.000
220.111;  -18.775; -328.000;  -40.000
220.255;  -90.800; -797.000; -750.000
220.400;  -17.475; -180.000; -146.000
220.544;  -66.350; -516.000; -450.000
220.689;  -47.675; -422.000; -451.000
220.833;  -18.500; -123.000;  -58.000
220.978;  -49.750; -393.000; -563.000
221.122;   30.625;  319.000;  307.000
221.267; -121.675; -906.000; -837.000
221.411;  -58.225; -478.000; -394.000
221.555;   -1.125; -104.000;  -23.000
221.700;  -40.875; -329.000; -222.000
221.844;   27.500;  255.000;  272.000
221.989;  -38.800; -328.000; -311.000
222.133;  -20.150; -289.000; -307.000
222.277;   -0.725;    5.000;   78.000
222.422;   29.050;  227.000;  113.000
222.566;  -34.650; -381.000; -214.000
222.711;  -49.450; -414.000; -479.000
222.855;  -72.175; -643.000; -586.000
222.999;  -95.600; -642.000; -717.000
223.144;  -19.100; -195.000; -194.000
223.288;   47.800;  423.000;  251.000
223.432;   46.225;  184.000;  230.000
223.576;   24.200;  152.000;  -21.000
223.721;   43.000;  364.000;  273.000
223.865;  -61.300; -472.000; -475.000
224.009;  229.750; 1673.000; 1631.000
224.153;  -70.075; -660.000; -671.000
224.298;  -59.925; -531.000; -489.000
224.442;  -14.250;  -74.000;  -33.000
224.586;   -7.100; -169.000; -106.000
224.730; -101.425; -858.000; -670.000
224.875; -100.525; -739.000; -688.000
225.019;   19.400;  102.000;  188.000
225.163;   54.600;  208.000;  341.000
225.307;   26.750;   97.000;  -91.000
225.451;   54.700;  360.000;  481.000
225.595;   47.025;  264.000;  176.000
225.739;   -9.225; -170.000;  -94.000
225.884;   -5.800;   86.000;    5.000
226.028;  -97.450; -760.000; -626.000
226.172;  -34.075; -260.000; -273.000
226.316; -124.075; -941.000; -902.000
226.460;  -57.050; -645.000; -493.000
226.604;  -35.600; -406.000; -400.000
226.748; -104.325; -836.000; -733.000
226.892;  -32.225; -227.000; -181.000
227.036;  -57.400; -537.000; -447.000
227.180;  -60.725; -551.000; -375.000
227.324;  -63.850; -561.000; -580.000
227.468; -107.750; -819.000; -717.000
227.612;   22.375;  242.000;  -28.000
227.756; -102.550; -845.000; -698.000
227.900;   57.525;  342.000;  441.000
228.044;  -44.200; -509.000; -290.000
228.188;   66.725;  448.000;  568.000
228.332;  -74.250; -546.000; -472.000
228.476;  -20.200; -223.000; -149.000
228.620;  -27.475; -210.000; -150.000
228.764;   71.400;  431.000;  349.000
228.908;  -21.350; -155.000;   30.000
229.052;  -59.575; -615.000; -528.000
229.195;  -22.700; -172.000;   13.000
229.339;  -38.375; -235.000; -305.000
229.483;  -21.400;    5.000; -162.000
229.627;    9.275; -156.000;  139.000
229.771;  -42.150; -218.000; -294.000
229.915;    5.875;  230.000;   79.000
230.059;  -89.800; -648.000; -663.000
230.202;  -29.125; -370.000; -317.000
230.346;   -5.425; -107.000;  107.000
230.490;  -44.200; -489.000; -521.000
230.634; -102.575; -736.000; -553.000
230.777;   78.375;  478.000;  509.000
230.921;  -51.975; -450.000; -359.000
231.065;  -33.700; -246.000; -286.000
231.209;   30.450;  261.000;  265.000
231.352;   27.900;   54.000;   40.000
231.496;   19.500;  568.000;  188.000
231.640;  -91.375; -693.000; -621.000
231.783;   70.275;  546.000;  525.000
231.927;  -41.925; -294.000; -365.000
232.071; -114.175; -962.000; -736.000
232.214; -116.525; -980.000; -764.000
232.358;  -90.625; -683.000; -599.000
232.502;   12.300;  -19.000;    7.000
232.645; -146.700;-1090.000; -927.000
232.789;  -25.750; -257.000; -218.000
232.933;  -31.950; -407.000; -224.000
233.076; -123.100;-1038.000; -897.000
233.220; -104.400; -752.000; -777.000
233.363;  -77.550; -669.000; -477.000
233.507;   50.225;  371.000;  129.000
233.650; -100.325; -764.000; -834.000
233.794;   50.575;  438.000;  461.000
233.938;  -68.425; -530.000; -362.000
234.081;  -17.550;  -93.000;   31.000
234.225;  -59.550; -631.000; -539.000
234.368; -112.350; -773.000; -723.000
234.512;  -45.650; -385.000; -299.000
234.655;  -88.025; -582.000; -555.000
234.798;  -75.850; -493.000; -466.000
234.942; -129.900; -884.000;-1002.000
235.085;  -74.050; -651.000; -443.000
235.229;  -59.025; -405.000; -410.000
235.372;  -44.825; -247.000; -191.000
235.516;  -51.275; -397.000; -321.000
235.659;   21.550;   92.000;  121.000
235.802;   -9.500;  -38.000;  -22.000
235.946;   26.100;  335.000;  215.000
236.089;   38.775;  126.000;  250.000
236.233;   51.975;  275.000;  298.000
236.376;  -50.725; -235.000; -378.000
236.519;  -49.325; -297.000; -319.000
236.663;  -23.550; -215.000; -117.000
236.806; -141.700;-1029.000; -999.000
236.949;   56.800;  543.000;  431.000
237.092;   61.775;  412.000;  391.000
237.236;  -83.750; -589.000; -502.000
237.379;   80.350;  352.000;  428.000
237.522; -115.300; -879.000; -768.000
237.666;  -13.825; -271.000;   18.000
237.809; -124.600; -851.000; -823.000
237.952;   41.725;  469.000;  271.000
238.095;  -66.325; -447.000; -442.000
238.238;   86.150;  688.000;  700.000
238.382;    6.400;  166.000;  103.000
238.525;  -70.450; -598.000; -511.000
238.668; -141.950;-1060.000; -985.000
238.811;  -89.250; -638.000; -643.000
238.954;  -45.800; -483.000; -334.000
239.097;   94.550;  617.000;  664.000
239.241;   34.150;  394.000;  326.000
239.384;  -19.600; -254.000; -214.000
239.527;  -63.150; -424.000; -224.000
239.670; -139.925; -994.000;-1091.000
239.813; -107.600; -696.000; -658.000
239.956;   76.700;  579.000;  473.000
240.099; -117.500; -778.000; -725.000
240.242;   57.800;  428.000;  432.000
240.385;   39.775;  466.000;  450.000
240.528;  -65.775; -706.000; -473.000
240.671;   18.200;  189.000;  134.000
240.814;  -29.250; -441.000; -158.000
240.957;  -87.425; -767.000; -578.000
241.100;  -90.350; -779.000; -755.000
241.243; -139.875;-1234.000; -893.000
241.386;  -68.325; -508.000; -379.000
241.529;  -97.100; -735.000; -547.000
241.672;  -58.500; -566.000; -495.000
241.815; -119.525; -832.000; -808.000
241.958;  -22.275; -125.000; -182.000
242.101;  -70.525; -545.000; -390.000
242.244;  -34.975; -270.000; -325.000
242.387;  -45.925; -304.000; -246.000
242.530;   47.675;  470.000;  134.000
242.673;  -42.975; -381.000; -309.000
242.815; -119.800; -925.000; -899.000
242.958;  -65.275; -482.000; -381.000
243.101;   24.375;  132.000;  187.000
243.244;  -91.050; -564.000; -521.000
243.387;  -47.625; -313.000; -316.000
243.530;  -95.700; -657.000; -674.000
243.672;   15.200;   43.000;  -92.000
243.815;  -50.875; -355.000; -283.000
243.958;    1.400;   98.000;  -26.000
244.101;    9.825;   59.000;  -16.000
244.243;  -15.325;  -47.000;  101.000
244.386; -106.200; -761.000; -630.000
244.529;  -18.025; -132.000; -139.000
244.672; -156.475;-1154.000; -951.000
244.814; -100.950; -621.000; -794.000
244.957;  -54.975; -380.000; -304.000
245.100;  -76.400; -489.000; -489.000
245.242;  -63.600; -387.000; -374.000
245.385;   -4.725;  -59.000;  -39.000
245.528; -112.475; -871.000; -705.000
245.670;   91.525;  612.000;  634.000
245.813;  -90.725; -599.000; -547.000
245.956;  -21.500; -324.000; -275.000
246.098;  -64.275; -508.000; -650.000
246.241;    6.925;  194.000;   48.000
246.383;  -10.025; -119.000;  -73.000
246.526;  -82.725; -454.000; -525.000
246.669; -117.250; -889.000; -780.000
246.811;   18.425;  172.000;   -1.000
246.954;  -51.525; -512.000; -426.000
247.096;  -25.325;  -84.000;   -6.000
247.239;  -72.500; -482.000; -445.000
247.381;  -64.625; -647.000; -488.000
247.524;   83.425;  645.000;  679.000
247.666;   -6.125;   58.000;   11.000
247.809; -123.425; -887.000; -691.000
247.951;   -9.325;  -75.000;  138.000
248.094;   26.425;  432.000;  308.000
248.236; -148.550;-1262.000;-1238.000
248.378;    4.075; -356.000;  -81.000
248.521;  -22.725; -334.000; -337.000
248.663;  -51.100; -236.000; -267.000
248.806;  -30.450; -300.000; -266.000
248.948;  -89.125; -886.000; -763.000
249.090;  -55.700; -428.000; -398.000
249.233;  -35.575; -344.000; -381.000
249.375;  -70.275; -474.000; -451.000
249.518;  -13.600;  -83.000; -133.000
249.660;  -20.875; -103.000;    3.000
249.802; -168.000;-1303.000;-1189.000
249.945;  -87.825; -612.000; -540.000
250.087; -110.625; -834.000; -768.000
250.229;  -46.000; -362.000; -480.000
250.371;  -74.700; -494.000; -439.000
250.514;  -58.325; -310.000; -244.000
250.656;   11.725;   69.000;  102.000
250.798; -119.800; -849.000; -800.000
250.940;  -56.675; -322.000; -322.000
251.083;  -20.575; -335.000; -111.000
251.225;   61.675;  338.000;  310.000
251.367;  -35.150; -274.000; -373.000
251.509;  -36.125; -265.000; -210.000
251.651; -102.025; -731.000; -671.000
251.794;   46.225;  538.000;  632.000
251.936; -110.650; -821.000; -747.000
252.078;  -75.575; -540.000; -461.000
252.220;  -63.775; -645.000; -477.000
252.362;   93.800;  344.000;  462.000
252.504;  -83.175; -677.000; -584.000
252.646; -123.125; -875.000; -722.000
252.788;   -5.625;   14.000; -128.000
252.931;  -29.900; -257.000; -253.000
253.073;  -39.800; -376.000; -317.000
253.215;   -8.775;  141.000;  122.000
253.357;   -3.625;   82.000; -153.000
253.499;  -60.900; -374.000; -234.000
253.641;  -85.125; -749.000; -594.000
253.783;  -93.100; -609.000; -527.000
253.925;  -89.575; -586.000; -591.000
254.067; -108.575; -744.000; -667.000
254.209;  -36.725; -391.000; -259.000
254.351; -134.000; -865.000; -883.000
254.493;  -69.050; -441.000; -417.000
254.635; -134.675; -936.000; -818.000
254.777;  -86.825; -752.000; -687.000
254.918;  -67.700; -512.000; -430.000
255.060;  -66.500; -551.000; -395.000
255.202;  -39.425; -473.000; -261.000
255.344;  -80.225; -658.000; -455.000
255.486;  -74.325; -471.000; -406.000
255.628; -116.375; -780.000; -781.000
255.770; -103.925; -676.000; -536.000
255.912;  -58.150; -559.000; -468.000
256.053;  -85.100; -730.000; -508.000
256.195;  161.250; 1008.000;  903.000
256.337;  -98.475; -861.000; -595.000
256.479;   53.500;  532.000;  416.000
256.621;  -54.375; -394.000; -212.000
256.762; -101.975; -789.000; -742.000
256.904;   54.850;  485.000;  487.000
257.046;  -42.550; -381.000; -271.000
257.188;  -46.075; -351.000; -264.000
257.329;  -80.700; -525.000; -464.000
257.471; -128.200; -939.000; -807.000
257.613;  -55.450; -584.000; -498.000
257.755; -143.175;-1073.000; -982.000
257.896;   49.100;  286.000;  392.000
258.038;  -74.375; -403.000; -352.000
258.180;  -42.650; -354.000; -279.000
258.321;  -99.825; -581.000; -457.000
258.463;    0.700;  -71.000;  133.000
258.605;  -92.300; -562.000; -570.000
258.746; -101.925; -886.000; -772.000
258.888; -154.975;-1026.000;-1020.000
259.029;   25.650;  121.000;   -8.000
259.171;  -81.600; -614.000; -550.000
259.313;   -7.500;  -49.000;  -47.000
259.454;  -72.500; -536.000; -414.000
259.596;  -47.775; -483.000; -390.000
259.737;  -71.450; -590.000; -474.000
259.879;   46.875;  217.000;  311.000
260.020;   81.775;  901.000;  636.000
260.162;  -18.350; -146.000; -253.000
260.303; -129.225; -768.000; -687.000
260.445;  -83.675; -609.000; -613.000
260.586;   28.275;  392.000;  157.000
260.728;  -48.900; -360.000; -248.000
260.869; -125.700; -350.000; -343.000
261.011;   81.325;  706.000;  537.000
261.152;  -67.150; -479.000; -319.000
261.293;  -87.300; -576.000; -595.000
261.435;  -22.150; -219.000; -184.000
261.576;  -39.000; -455.000; -325.000
261.718;   60.825;  420.000;  470.000
261.859; -133.475; -940.000; -949.000
262.000; -134.950; -951.000;-1016.000
262.142;  -18.725;  -52.000;  -60.000
262.283; -109.950; -808.000; -691.000
262.424;  -87.050; -666.000; -625.000
262.566; -155.225;-1161.000; -983.000
262.707; -112.650; -840.000; -830.000
262.848; -121.375; -769.000; -726.000
262.990;  -44.000; -362.000; -345.000
263.131;   86.725;  650.000;  681.000
263.272;  -10.425;  -61.000;  -41.000
263.413;  -86.825; -589.000; -561.000
263.555;  -75.475; -669.000; -143.000
263.696;  -83.100; -550.000; -641.000
263.837;  -69.050; -449.000; -551.000
263.978;   -0.950;   -5.000;  -77.000
264.119;  -50.475; -283.000; -264.000
264.261; -102.325; -847.000; -630.000
264.402;    4.125;   33.000;   40.000
264.543;  -56.800; -509.000; -524.000
264.684;  -13.025;   61.000;  -50.000
264.825;  -70.200; -816.000; -538.000
264.966;   -0.750;  -84.000;  -67.000
265.107; -105.025; -646.000; -670.000
265.248; -113.425; -825.000; -812.000
265.390;   -1.350;  152.000;   -9.000
265.531;  -20.675; -238.000; -107.000
265.672;  -93.975; -557.000; -630.000
265.813;   64.725;  563.000;  439.000
265.954; -149.750; -959.000; -940.000
266.095;  -22.500; -372.000; -322.000
266.236; -101.850; -686.000; -548.000
266.377;  -38.425; -243.000; -297.000
266.518;  -61.400; -619.000; -547.000
266.659;   24.125;  170.000;  268.000
266.800;   14.800;   83.000;   85.000
266.941;  -74.850; -487.000; -478.000
267.082;   27.500;  354.000;   99.000
267.223;  -57.500; -344.000; -273.000
267.364; -107.150; -892.000; -686.000
267.504;  -17.000;    3.000;  135.000
267.645;    9.650;  160.000;   67.000
267.786;  -37.075; -147.000;  -86.000
267.927;  -66.650; -473.000; -379.000
268.068;  -21.075; -186.000;  -61.000
268.209;  -58.125; -175.000; -413.000
268.350;  -58.400; -388.000; -532.000
268.490;  -84.125; -648.000; -521.000
268.631;   36.075;  127.000;  225.000
268.772; -117.125; -874.000; -647.000
268.913;  -46.800; -328.000; -476.000
269.054;  -10.750; -117.000;   12.000
269.194;  -50.050; -418.000; -402.000
269.335; -146.350;-1137.000;-1074.000
269.476;  -25.700;   33.000;  -35.000
269.617;  -58.075; -347.000; -392.000
269.757;  -97.300; -713.000; -646.000
269.898;  -99.550; -856.000; -613.000
270.039;  -61.825; -415.000; -405.000
270.180; -145.250; -952.000; -816.000
270.320;  -22.475; -190.000; -250.000
