
Integration time [ms]: 200.000
Averaging Nr. [scans]: 10
Smoothing Nr. [pixels]: 0
Data measured with spectrometer [name]: 2101012U2
Wave   ;Sample   ;Dark     ;Reference
[nm]   ;[counts] ;[counts] ;[counts] 

197.733;  125.500;  516.000;  404.000
197.879; -145.400; -610.000; -634.000
198.025;  -83.200; -475.000; -420.000
198.171; -170.900; -602.000; -612.000
198.317;  -71.100; -401.000; -316.000
198.463; -149.600; -655.000; -404.000
198.609;   72.300;  181.000; -137.000
198.755; -198.300; -644.000; -410.000
198.901; -126.800; -505.000; -424.000
199.047; -122.200; -615.000; -488.000
199.193;  -68.700; -230.000; -468.000
199.339; -105.400; -222.000; -369.000
199.485;  111.000;  330.000;  271.000
199.631;   22.500;  227.000;  310.000
199.777; -110.700; -466.000; -398.000
199.923; -133.800; -610.000; -424.000
200.069;    7.300; -141.000;  -58.000
200.215;   87.200;  128.000;  453.000
200.361;   79.200;  243.000;  477.000
200.507; -155.100; -600.000; -373.000
200.653;  -52.900; -371.000; -194.000
200.798;  -73.900; -215.000; -125.000
200.944;    3.300; -146.000;  -41.000
201.090;   78.600;   61.000;  222.000
201.236;  -31.700; -116.000; -158.000
201.382;  270.700;  874.000;  903.000
201.528;   35.400;  -58.000;  -48.000
201.674; -109.900; -386.000; -293.000
201.819; -128.500; -540.000; -439.000
201.965; -175.100; -699.000; -447.000
202.111;  -40.700; -273.000; -226.000
202.257;  -94.200; -250.000; -238.000
202.402;   35.700;   13.000;  -36.000
202.548;  -44.300; -169.000; -116.000
202.694;  191.700;  410.000; -183.000
202.840; -175.500; -603.000; -531.000
202.985; -136.400; -681.000; -639.000
203.131; -223.500; -832.000; -666.000
203.277;  -61.300; -199.000; -262.000
203.423; -118.200; -434.000; -520.000
203.568;  -96.100; -462.000; -237.000
203.714; -141.500; -535.000; -542.000
203.860; -161.800; -682.000; -641.000
204.005;    7.000;  112.000;  167.000
204.151;  146.100;  561.000;  556.000
204.296;  -92.200; -354.000; -221.000
204.442; -135.500; -600.000; -547.000
204.588; -163.900; -592.000; -579.000
204.733;  101.500;  178.000;  168.000
204.879; -282.900;-1018.000; -822.000
205.025;   44.100;  -99.000;  126.000
205.170;   -3.800;  -17.000;   94.000
205.316;  187.700;  438.000;  661.000
205.461; -174.600; -698.000; -554.000
205.607;  176.900;  609.000;  665.000
205.752; -197.500; -626.000; -551.000
205.898; -108.000; -501.000; -391.000
206.043; -153.300; -578.000; -506.000
206.189;  -82.200; -243.000; -285.000
206.334;  160.300;  554.000;  606.000
206.480;  185.100;  409.000;  239.000
206.625; -184.700; -529.000; -552.000
206.771;  -97.900; -451.000; -373.000
206.916;  -75.300; -210.000; -537.000
207.062; -134.700; -545.000; -591.000
207.207; -138.400; -546.000; -443.000
207.353;  127.100;  185.000;  460.000
207.498;   43.900;  196.000;   85.000
207.643;  -88.000; -501.000; -370.000
207.789; -254.300;-1069.000; -910.000
207.934; -162.000; -665.000; -713.000
208.080;  -52.100; -154.000;   66.000
208.225;   10.100;  -22.000;  -57.000
208.370; -167.400; -727.000; -619.000
208.516; -140.100; -741.000; -487.000
208.661;  -70.400; -127.000;  -69.000
208.806;  -43.200; -165.000; -171.000
208.952; -267.300;-1044.000; -731.000
209.097;  183.100;  378.000;  349.000
209.242;  -79.300; -307.000; -382.000
209.387;  124.600;  392.000;  350.000
209.533; -112.400; -321.000; -350.000
209.678;  191.700;  472.000;  543.000
209.823; -110.400; -408.000; -310.000
209.969; -211.500; -860.000; -757.000
210.114; -261.500; -907.000; -719.000
210.259; -256.100; -939.000; -889.000
210.404;  -42.200; -171.000;  103.000
210.549;   23.900;  108.000;    3.000
210.695;  -26.300;   -3.000;  -95.000
210.840;   83.700;   94.000;   67.000
210.985; -150.900; -484.000; -303.000
211.130;  120.400;  268.000;  406.000
211.275;   -5.400;  207.000;  199.000
211.420;  -81.500; -300.000; -289.000
211.566; -141.700; -536.000; -489.000
211.711;   74.900;  218.000;  157.000
211.856; -144.600; -545.000; -519.000
212.001;   41.900;  151.000;   44.000
212.146;   26.900;  153.000;   49.000
212.291;  -18.400; -210.000; -186.000
212.436;  -63.800; -280.000;   -6.000
212.581; -167.000; -685.000; -653.000
212.726; -165.400; -487.000; -538.000
212.871; -116.100; -552.000; -217.000
213.016; -332.900;-1172.000;-1029.000
213.161;  113.000;  406.000;  291.000
213.306; -172.500; -435.000; -577.000
213.451; -189.000; -778.000; -689.000
213.596; -105.600; -455.000; -347.000
213.741; -116.500; -448.000; -538.000
213.886; -134.900; -498.000; -517.000
214.031;  -37.800; -294.000; -124.000
214.176; -133.700; -408.000; -341.000
214.321;  -16.800; -296.000; -157.000
214.466;  -62.400; -163.000;  -43.000
214.611;   25.300;  -61.000;  -10.000
214.756; -261.600; -948.000; -858.000
214.901;  -49.000; -388.000; -226.000
215.046; -244.200; -797.000; -825.000
215.191;   62.500;  128.000;   35.000
215.336;  -34.100; -157.000;  -19.000
215.480; -134.900; -684.000; -505.000
215.625;  -17.200; -175.000;  -19.000
215.770; -153.200; -757.000; -662.000
215.915;   -5.500;   -5.000;  -97.000
216.060;   -7.800; -113.000;  -21.000
216.205; -229.200; -731.000; -779.000
216.349; -139.500; -470.000; -533.000
216.494; -291.300; -939.000; -867.000
216.639; -232.400; -823.000; -888.000
216.784; -167.900; -577.000; -525.000
216.929;  109.100;  392.000;  281.000
217.073;   -4.000; -244.000;  -31.000
217.218;   29.500;   78.000;  -47.000
217.363; -199.700; -656.000; -618.000
217.507; -152.000; -623.000; -588.000
217.652; -272.100; -845.000; -874.000
217.797; -186.100; -708.000; -659.000
217.942; -244.900; -856.000; -720.000
218.086;  161.100;  608.000;  539.000
218.231;  -47.600; -174.000;  -26.000
218.376;  -35.200; -337.000; -229.000
218.520;  -35.000;  -41.000;   96.000
218.665;  -54.200; -338.000; -204.000
218.810;  -96.400; -275.000; -233.000
218.954;   58.600;  201.000;   35.000
219.099; -258.100; -713.000; -963.000
219.243; -156.300; -589.000; -554.000
219.388;  -56.300; -264.000; -136.000
219.532;  -23.900; -116.000; -116.000
219.677; -174.600; -564.000; -521.000
219.822;   25.900;   33.000;   89.000
219.966;   11.300;   17.000;  -99.000
220.111;  -47.500; -328.000;  -40.000
220.255; -201.100; -797.000; -750.000
220.400;  -24.900; -180.000; -146.000
220.544; -132.100; -516.000; -450.000
220.689; -114.500; -422.000; -451.000
220.833;  -49.700; -123.000;  -58.000
220.978;  -74.500; -393.000; -563.000
221.122;   50.400;  319.000;  307.000
221.267; -253.700; -906.000; -837.000
221.411; -123.800; -478.000; -394.000
221.555;   12.400; -104.000;  -23.000
221.700; -114.200; -329.000; -222.000
221.844;  103.500;  255.000;  272.000
221.989; -104.900; -328.000; -311.000
222.133;  -66.700; -289.000; -307.000
222.277;   -6.800;    5.000;   78.000
222.422;   51.600;  227.000;  113.000
222.566;  -79.400; -381.000; -214.000
222.711;  -95.900; -414.000; -479.000
222.855; -183.400; -643.000; -586.000
222.999; -153.300; -642.000; -717.000
223.144;  -38.500; -195.000; -194.000
223.288;  125.200;  423.000;  251.000
223.432;   43.100;  184.000;  230.000
223.576;   48.500;  152.000;  -21.000
223.721;  118.300;  364.000;  273.000
223.865; -103.100; -472.000; -475.000
224.009;  511.100; 1673.000; 1631.000
224.153; -178.900; -660.000; -671.000
224.298; -147.400; -531.000; -489.000
224.442;  -13.700;  -74.000;  -33.000
224.586;  -16.800; -169.000; -106.000
224.730; -213.500; -858.000; -670.000
224.875; -266.600; -739.000; -688.000
225.019;   48.000;  102.000;  188.000
225.163;  143.200;  208.000;  341.000
225.307;   48.000;   97.000;  -91.000
225.451;   93.200;  360.000;  481.000
225.595;   89.400;  264.000;  176.000
225.739;  -28.000; -170.000;  -94.000
225.884;   16.200;   86.000;    5.000
226.028; -209.900; -760.000; -626.000
226.172;  -56.400; -260.000; -273.000
226.316; -249.500; -941.000; -902.000
226.460; -115.100; -645.000; -493.000
226.604; -102.300; -406.000; -400.000
226.748; -195.300; -836.000; -733.000
226.892;  -76.800; -227.000; -181.000
227.036;  -86.900; -537.000; -447.000
227.180;  -99.900; -551.000; -375.000
227.324; -134.100; -561.000; -580.000
227.468; -254.200; -819.000; -717.000
227.612;   56.300;  242.000;  -28.000
227.756; -211.800; -845.000; -698.000
227.900;  136.000;  342.000;  441.000
228.044; -129.600; -509.000; -290.000
228.188;  141.700;  448.000;  568.000
228.332; -186.600; -546.000; -472.000
228.476;  -69.500; -223.000; -149.000
228.620;  -67.700; -210.000; -150.000
228.764;  166.700;  431.000;  349.000
228.908;  -53.300; -155.000;   30.000
229.052; -105.700; -615.000; -528.000
229.195;  -44.800; -172.000;   13.000
229.339;  -43.100; -235.000; -305.000
229.483;  -65.200;    5.000; -162.000
229.627;  -19.300; -156.000;  139.000
229.771; -104.000; -218.000; -294.000
229.915;   30.100;  230.000;   79.000
230.059; -216.000; -648.000; -663.000
230.202;  -71.100; -370.000; -317.000
230.346;  -37.300; -107.000;  107.000
230.490; -116.200; -489.000; -521.000
230.634; -230.400; -736.000; -553.000
230.777;  175.500;  478.000;  509.000
230.921; -131.200; -450.000; -359.000
231.065;  -58.100; -246.000; -286.000
231.209;   89.600;  261.000;  265.000
231.352;   53.800;   54.000;   40.000
231.496;   20.100;  568.000;  188.000
231.640; -170.200; -693.000; -621.000
231.783;  178.500;  546.000;  525.000
231.927;  -78.200; -294.000; -365.000
232.071; -260.900; -962.000; -736.000
232.214; -205.900; -980.000; -764.000
232.358; -244.600; -683.000; -599.000
232.502;   23.700;  -19.000;    7.000
232.645; -286.400;-1090.000; -927.000
232.789;  -23.400; -257.000; -218.000
232.933; -106.600; -407.000; -224.000
233.076; -279.400;-1038.000; -897.000
233.220; -224.600; -752.000; -777.000
233.363; -132.400; -669.000; -477.000
233.507;  140.500;  371.000;  129.000
233.650; -171.700; -764.000; -834.000
233.794;  126.800;  438.000;  461.000
233.938; -116.700; -530.000; -362.000
234.081;  -29.500;  -93.000;   31.000
234.225; -103.000; -631.000; -539.000
234.368; -203.000; -773.000; -723.000
234.512;  -74.700; -385.000; -299.000
234.655; -177.900; -582.000; -555.000
234.798; -121.300; -493.000; -466.000
234.942; -290.800; -884.000;-1002.000
235.085; -127.200; -651.000; -443.000
235.229; -145.200; -405.000; -410.000
235.372;  -84.500; -247.000; -191.000
235.516; -123.700; -397.000; -321.000
235.659;   38.300;   92.000;  121.000
235.802;  -15.800;  -38.000;  -22.000
235.946;   70.900;  335.000;  215.000
236.089;   60.800;  126.000;  250.000
236.233;  153.700;  275.000;  298.000
236.376;  -88.100; -235.000; -378.000
236.519;  -62.100; -297.000; -319.000
236.663;   -0.600; -215.000; -117.000
236.806; -260.800;-1029.000; -999.000
236.949;  111.500;  543.000;  431.000
237.092;  120.900;  412.000;  391.000
237.236; -178.500; -589.000; -502.000
237.379;  145.900;  352.000;  428.000
237.522; -253.600; -879.000; -768.000
237.666;  -51.700; -271.000;   18.000
237.809; -274.000; -851.000; -823.000
237.952;  127.000;  469.000;  271.000
238.095; -130.600; -447.000; -442.000
238.238;  200.600;  688.000;  700.000
238.382;   16.400;  166.000;  103.000
238.525; -119.200; -598.000; -511.000
238.668; -293.200;-1060.000; -985.000
238.811; -155.200; -638.000; -643.000
238.954; -123.200; -483.000; -334.000
239.097;  221.100;  617.000;  664.000
239.241;   59.400;  394.000;  326.000
239.384;  -61.400; -254.000; -214.000
239.527; -121.300; -424.000; -224.000
239.670; -310.000; -994.000;-1091.000
239.813; -226.200; -696.000; -658.000
239.956;  213.000;  579.000;  473.000
240.099; -229.500; -778.000; -725.000
240.242;  149.400;  428.000;  432.000
240.385;  137.400;  466.000;  450.000
240.528; -128.300; -706.000; -473.000
240.671;   49.000;  189.000;  134.000
240.814;  -80.500; -441.000; -158.000
240.957; -230.200; -767.000; -578.000
241.100; -205.100; -779.000; -755.000
241.243; -295.200;-1234.000; -893.000
241.386; -106.700; -508.000; -379.000
241.529; -177.300; -735.000; -547.000
241.672;  -99.100; -566.000; -495.000
241.815; -234.500; -832.000; -808.000
241.958;  -39.300; -125.000; -182.000
242.101; -160.500; -545.000; -390.000
242.244;  -80.400; -270.000; -325.000
242.387;  -98.500; -304.000; -246.000
242.530;  151.900;  470.000;  134.000
242.673;  -81.900; -381.000; -309.000
242.815; -217.900; -925.000; -899.000
242.958; -137.300; -482.000; -381.000
243.101;   69.800;  132.000;  187.000
243.244; -166.600; -564.000; -521.000
243.387;  -85.700; -313.000; -316.000
243.530; -204.500; -657.000; -674.000
243.672;   -3.100;   43.000;  -92.000
243.815; -118.300; -355.000; -283.000
243.958;   11.800;   98.000;  -26.000
244.101;   24.400;   59.000;  -16.000
244.243;   -6.000;  -47.000;  101.000
244.386; -214.200; -761.000; -630.000
244.529;  -30.600; -132.000; -139.000
244.672; -314.500;-1154.000; -951.000
244.814; -180.000; -621.000; -794.000
244.957;  -55.700; -380.000; -304.000
245.100; -133.100; -489.000; -489.000
245.242; -119.900; -387.000; -374.000
245.385;  -19.200;  -59.000;  -39.000
245.528; -244.700; -871.000; -705.000
245.670;  209.700;  612.000;  634.000
245.813; -190.200; -599.000; -547.000
245.956;  -62.300; -324.000; -275.000
246.098; -143.700; -508.000; -650.000
246.241;   36.000;  194.000;   48.000
246.383;  -50.800; -119.000;  -73.000
246.526; -144.300; -454.000; -525.000
246.669; -256.400; -889.000; -780.000
246.811;   52.000;  172.000;   -1.000
246.954; -137.700; -512.000; -426.000
247.096;   -3.800;  -84.000;   -6.000
247.239; -134.000; -482.000; -445.000
247.381; -144.800; -647.000; -488.000
247.524;  185.300;  645.000;  679.000
247.666;    2.300;   58.000;   11.000
247.809; -233.800; -887.000; -691.000
247.951;    8.100;  -75.000;  138.000
248.094;   68.800;  432.000;  308.000
248.236; -301.700;-1262.000;-1238.000
248.378; -112.200; -356.000;  -81.000
248.521;  -88.400; -334.000; -337.000
248.663;  -81.700; -236.000; -267.000
248.806;  -57.300; -300.000; -266.000
248.948; -263.900; -886.000; -763.000
249.090; -131.700; -428.000; -398.000
249.233; -135.100; -344.000; -381.000
249.375; -128.900; -474.000; -451.000
249.518;  -26.200;  -83.000; -133.000
249.660;    5.700; -103.000;    3.000
249.802; -358.500;-1303.000;-1189.000
249.945; -145.500; -612.000; -540.000
250.087; -228.500; -834.000; -768.000
250.229; -133.900; -362.000; -480.000
250.371; -146.500; -494.000; -439.000
250.514;  -93.600; -310.000; -244.000
250.656;  -20.200;   69.000;  102.000
250.798; -234.400; -849.000; -800.000
250.940; -144.900; -322.000; -322.000
251.083;  -52.300; -335.000; -111.000
251.225;  106.200;  338.000;  310.000
251.367;  -88.400; -274.000; -373.000
251.509;  -82.200; -265.000; -210.000
251.651; -161.700; -731.000; -671.000
251.794;  114.300;  538.000;  632.000
251.936; -189.800; -821.000; -747.000
252.078; -180.600; -540.000; -461.000
252.220; -147.500; -645.000; -477.000
252.362;   77.300;  344.000;  462.000
252.504; -169.700; -677.000; -584.000
252.646; -230.600; -875.000; -722.000
252.788;   12.900;   14.000; -128.000
252.931; -110.300; -257.000; -253.000
253.073;  -80.000; -376.000; -317.000
253.215;   -9.500;  141.000;  122.000
253.357;  -15.900;   82.000; -153.000
253.499; -115.500; -374.000; -234.000
253.641; -197.400; -749.000; -594.000
253.783; -189.800; -609.000; -527.000
253.925; -169.400; -586.000; -591.000
254.067; -237.000; -744.000; -667.000
254.209;  -65.000; -391.000; -259.000
254.351; -283.700; -865.000; -883.000
254.493; -115.600; -441.000; -417.000
254.635; -233.000; -936.000; -818.000
254.777; -178.800; -752.000; -687.000
254.918; -160.400; -512.000; -430.000
255.060; -132.700; -551.000; -395.000
255.202; -131.600; -473.000; -261.000
255.344; -150.700; -658.000; -455.000
255.486; -124.600; -471.000; -406.000
255.628; -181.800; -780.000; -781.000
255.770; -187.400; -676.000; -536.000
255.912; -105.500; -559.000; -468.000
256.053; -191.100; -730.000; -508.000
256.195;  347.700; 1008.000;  903.000
256.337; -197.100; -861.000; -595.000
256.479;  157.900;  532.000;  416.000
256.621;  -79.000; -394.000; -212.000
256.762; -189.600; -789.000; -742.000
256.904;  137.200;  485.000;  487.000
257.046;  -67.400; -381.000; -271.000
257.188; -102.500; -351.000; -264.000
257.329; -168.900; -525.000; -464.000
257.471; -256.400; -939.000; -807.000
257.613; -138.500; -584.000; -498.000
257.755; -339.700;-1073.000; -982.000
257.896;   73.600;  286.000;  392.000
258.038; -138.300; -403.000; -352.000
258.180;  -57.200; -354.000; -279.000
258.321; -190.100; -581.000; -457.000
258.463;   18.400;  -71.000;  133.000
258.605; -217.400; -562.000; -570.000
258.746; -207.900; -886.000; -772.000
258.888; -341.200;-1026.000;-1020.000
259.029;   53.400;  121.000;   -8.000
259.171; -186.200; -614.000; -550.000
259.313;   41.000;  -49.000;  -47.000
259.454; -140.100; -536.000; -414.000
259.596;  -86.300; -483.000; -390.000
259.737; -164.800; -590.000; -474.000
259.879;  102.600;  217.000;  311.000
260.020;  192.800;  901.000;  636.000
260.162;  -52.700; -146.000; -253.000
260.303; -229.200; -768.000; -687.000
260.445; -144.400; -609.000; -613.000
260.586;   56.500;  392.000;  157.000
260.728; -115.100; -360.000; -248.000
260.869; -160.300; -350.000; -343.000
261.011;  179.900;  706.000;  537.000
261.152; -122.500; -479.000; -319.000
261.293; -161.200; -576.000; -595.000
261.435;  -56.600; -219.000; -184.000
261.576;  -78.600; -455.000; -325.000
261.718;  112.900;  420.000;  470.000
261.859; -265.100; -940.000; -949.000
262.000; -287.300; -951.000;-1016.000
262.142;  -24.700;  -52.000;  -60.000
262.283; -260.400; -808.000; -691.000
262.424; -189.300; -666.000; -625.000
262.566; -331.000;-1161.000; -983.000
262.707; -216.000; -840.000; -830.000
262.848; -230.300; -769.000; -726.000
262.990;  -49.600; -362.000; -345.000
263.131;  203.800;  650.000;  681.000
263.272;    7.000;  -61.000;  -41.000
263.413; -203.700; -589.000; -561.000
263.555; -114.500; -669.000; -143.000
263.696; -190.100; -550.000; -641.000
263.837;  -99.200; -449.000; -551.000
263.978;  -12.200;   -5.000;  -77.000
264.119;  -96.700; -283.000; -264.000
264.261; -250.500; -847.000; -630.000
264.402;    9.400;   33.000;   40.000
264.543; -139.000; -509.000; -524.000
264.684;  -13.200;   61.000;  -50.000
264.825; -142.800; -816.000; -538.000
264.966;   34.000;  -84.000;  -67.000
265.107; -267.200; -646.000; -670.000
265.248; -241.700; -825.000; -812.000
265.390;   11.200;  152.000;   -9.000
265.531;  -47.300; -238.000; -107.000
265.672; -187.200; -557.000; -630.000
265.813;  156.300;  563.000;  439.000
265.954; -296.500; -959.000; -940.000
266.095;  -20.100; -372.000; -322.000
266.236; -206.100; -686.000; -548.000
266.377;  -74.800; -243.000; -297.000
266.518; -150.400; -619.000; -547.000
266.659;   87.200;  170.000;  268.000
266.800;   23.800;   83.000;   85.000
266.941; -139.200; -487.000; -478.000
267.082;   48.800;  354.000;   99.000
267.223; -115.900; -344.000; -273.000
267.364; -249.800; -892.000; -686.000
267.504;   12.500;    3.000;  135.000
267.645;    9.400;  160.000;   67.000
267.786;  -50.200; -147.000;  -86.000
267.927; -149.500; -473.000; -379.000
268.068;  -26.900; -186.000;  -61.000
268.209; -118.300; -175.000; -413.000
268.350; -115.600; -388.000; -532.000
268.490; -178.900; -648.000; -521.000
268.631;   81.200;  127.000;  225.000
268.772; -237.000; -874.000; -647.000
268.913;  -87.000; -328.000; -476.000
269.054;  -71.300; -117.000;   12.000
269.194; -106.200; -418.000; -402.000
269.335; -324.100;-1137.000;-1074.000
269.476;  -15.200;   33.000;  -35.000
269.617;  -94.200; -347.000; -392.000
269.757; -161.200; -713.000; -646.000
269.898; -216.300; -856.000; -613.000
270.039; -119.900; -415.000; -405.000
270.180; -286.900; -952.000; -816.000
270.320;  -55.000; -190.000; -250.000
