
Integration time [ms]: 100.000
Averaging Nr. [scans]: 40
Smoothing Nr. [pixels]: 0
Data measured with spectrometer [name]: 2101012U2
Wave   ;Sample   ;Dark     ;Reference
[nm]   ;[counts] ;[counts] ;[counts] 

197.733;   62.250;  516.000;  404.000
197.879;  -84.125; -610.000; -634.000
198.025;  -49.550; -475.000; -420.000
198.171;  -87.250; -602.000; -612.000
198.317;  -46.000; -401.000; -316.000
198.463;  -57.800; -655.000; -404.000
198.609;   19.775;  181.000; -137.000
198.755;  -90.375; -644.000; -410.000
198.901;  -66.450; -505.000; -424.000
199.047;  -71.375; -615.000; -488.000
199.193;  -29.350; -230.000; -468.000
199.339;  -49.500; -222.000; -369.000
199.485;   32.850;  330.000;  271.000
199.631;   -6.200;  227.000;  310.000
199.777;  -53.400; -466.000; -398.000
199.923;  -69.950; -610.000; -424.000
200.069;    1.825; -141.000;  -58.000
200.215;   54.325;  128.000;  453.000
200.361;   41.000;  243.000;  477.000
200.507;  -72.225; -600.000; -373.000
200.653;  -32.725; -371.000; -194.000
200.798;  -40.075; -215.000; -125.000
200.944;  -16.500; -146.000;  -41.000
201.090;   32.400;   61.000;  222.000
201.236;    7.075; -116.000; -158.000
201.382;  128.225;  874.000;  903.000
201.528;   -2.300;  -58.000;  -48.000
201.674;  -31.825; -386.000; -293.000
201.819;  -64.150; -540.000; -439.000
201.965;  -81.700; -699.000; -447.000
202.111;  -40.375; -273.000; -226.000
202.257;  -41.525; -250.000; -238.000
202.402;    8.950;   13.000;  -36.000
202.548;  -38.975; -169.000; -116.000
202.694;   73.650;  410.000; -183.000
202.840;  -79.075; -603.000; -531.000
202.985;  -69.925; -681.000; -639.000
203.131;  -93.225; -832.000; -666.000
203.277;  -36.750; -199.000; -262.000
203.423;  -55.400; -434.000; -520.000
203.568;  -52.075; -462.000; -237.000
203.714;  -58.725; -535.000; -542.000
203.860;  -92.025; -682.000; -641.000
204.005;   12.200;  112.000;  167.000
204.151;   71.700;  561.000;  556.000
204.296;  -42.400; -354.000; -221.000
204.442;  -59.125; -600.000; -547.000
204.588;  -84.800; -592.000; -579.000
204.733;   15.775;  178.000;  168.000
204.879; -117.275;-1018.000; -822.000
205.025;    2.200;  -99.000;  126.000
205.170;  -15.325;  -17.000;   94.000
205.316;   61.525;  438.000;  661.000
205.461;  -90.300; -698.000; -554.000
205.607;   75.275;  609.000;  665.000
205.752;  -92.675; -626.000; -551.000
205.898;  -56.200; -501.000; -391.000
206.043;  -61.450; -578.000; -506.000
206.189;  -47.975; -243.000; -285.000
206.334;   67.700;  554.000;  606.000
206.480;   76.950;  409.000;  239.000
206.625;  -89.500; -529.000; -552.000
206.771;  -50.675; -451.000; -373.000
206.916;  -38.350; -210.000; -537.000
207.062;  -69.350; -545.000; -591.000
207.207;  -65.800; -546.000; -443.000
207.353;   47.050;  185.000;  460.000
207.498;    8.250;  196.000;   85.000
207.643;  -50.350; -501.000; -370.000
207.789; -140.975;-1069.000; -910.000
207.934;  -90.950; -665.000; -713.000
208.080;  -21.525; -154.000;   66.000
208.225;   -2.275;  -22.000;  -57.000
208.370;  -87.525; -727.000; -619.000
208.516;  -76.925; -741.000; -487.000
208.661;  -32.075; -127.000;  -69.000
208.806;  -19.125; -165.000; -171.000
208.952; -127.925;-1044.000; -731.000
209.097;   61.925;  378.000;  349.000
209.242;  -47.900; -307.000; -382.000
209.387;   44.175;  392.000;  350.000
209.533;  -48.725; -321.000; -350.000
209.678;   78.725;  472.000;  543.000
209.823;  -57.700; -408.000; -310.000
209.969; -112.450; -860.000; -757.000
210.114; -108.075; -907.000; -719.000
210.259; -128.875; -939.000; -889.000
210.404;  -11.750; -171.000;  103.000
210.549;    5.175;  108.000;    3.000
210.695;  -21.925;   -3.000;  -95.000
210.840;   16.325;   94.000;   67.000
210.985;  -57.500; -484.000; -303.000
211.130;   66.425;  268.000;  406.000
211.275;   10.450;  207.000;  199.000
211.420;  -62.625; -300.000; -289.000
211.566;  -77.450; -536.000; -489.000
211.711;   18.525;  218.000;  157.000
211.856;  -66.675; -545.000; -519.000
212.001;    8.975;  151.000;   44.000
212.146;   21.025;  153.000;   49.000
212.291;  -35.525; -210.000; -186.000
212.436;  -37.850; -280.000;   -6.000
212.581;  -81.725; -685.000; -653.000
212.726;  -76.475; -487.000; -538.000
212.871;  -55.250; -552.000; -217.000
213.016; -143.150;-1172.000;-1029.000
213.161;   62.350;  406.000;  291.000
213.306;  -85.275; -435.000; -577.000
213.451; -100.250; -778.000; -689.000
213.596;  -47.475; -455.000; -347.000
213.741;  -57.125; -448.000; -538.000
213.886;  -89.375; -498.000; -517.000
214.031;  -18.650; -294.000; -124.000
214.176;  -51.300; -408.000; -341.000
214.321;  -27.775; -296.000; -157.000
214.466;  -33.350; -163.000;  -43.000
214.611;  -18.400;  -61.000;  -10.000
214.756; -126.550; -948.000; -858.000
214.901;  -20.650; -388.000; -226.000
215.046; -122.925; -797.000; -825.000
215.191;   11.750;  128.000;   35.000
215.336;  -23.825; -157.000;  -19.000
215.480;  -76.425; -684.000; -505.000
215.625;  -20.000; -175.000;  -19.000
215.770;  -90.425; -757.000; -662.000
215.915;  -26.575;   -5.000;  -97.000
216.060;  -18.325; -113.000;  -21.000
216.205; -120.050; -731.000; -779.000
216.349;  -77.900; -470.000; -533.000
216.494; -146.700; -939.000; -867.000
216.639; -108.975; -823.000; -888.000
216.784;  -92.800; -577.000; -525.000
216.929;   44.475;  392.000;  281.000
217.073;  -23.900; -244.000;  -31.000
217.218;  -14.450;   78.000;  -47.000
217.363;  -92.500; -656.000; -618.000
217.507;  -88.325; -623.000; -588.000
217.652; -126.725; -845.000; -874.000
217.797; -108.225; -708.000; -659.000
217.942; -116.200; -856.000; -720.000
218.086;   80.425;  608.000;  539.000
218.231;  -21.300; -174.000;  -26.000
218.376;  -38.025; -337.000; -229.000
218.520;    0.500;  -41.000;   96.000
218.665;  -39.275; -338.000; -204.000
218.810;  -40.875; -275.000; -233.000
218.954;    4.975;  201.000;   35.000
219.099; -115.075; -713.000; -963.000
219.243;  -87.800; -589.000; -554.000
219.388;  -33.550; -264.000; -136.000
219.532;   -8.800; -116.000; -116.000
219.677;  -80.950; -564.000; -521.000
219.822;    1.000;   33.000;   89.000
219.966;    7.575;   17.000;  -99.000
220.111;  -33.400; -328.000;  -40.000
220.255; -102.500; -797.000; -750.000
220.400;  -27.675; -180.000; -146.000
220.544;  -74.700; -516.000; -450.000
220.689;  -69.850; -422.000; -451.000
220.833;  -22.300; -123.000;  -58.000
220.978;  -53.000; -393.000; -563.000
221.122;    9.150;  319.000;  307.000
221.267; -118.475; -906.000; -837.000
221.411;  -69.350; -478.000; -394.000
221.555;   -3.200; -104.000;  -23.000
221.700;  -43.850; -329.000; -222.000
221.844;   27.750;  255.000;  272.000
221.989;  -48.225; -328.000; -311.000
222.133;  -34.250; -289.000; -307.000
222.277;  -14.025;    5.000;   78.000
222.422;   16.150;  227.000;  113.000
222.566;  -32.250; -381.000; -214.000
222.711;  -61.400; -414.000; -479.000
222.855;  -77.775; -643.000; -586.000
222.999;  -82.925; -642.000; -717.000
223.144;  -26.400; -195.000; -194.000
223.288;   37.625;  423.000;  251.000
223.432;   19.225;  184.000;  230.000
223.576;   27.525;  152.000;  -21.000
223.721;   34.725;  364.000;  273.000
223.865;  -60.175; -472.000; -475.000
224.009;  227.600; 1673.000; 1631.000
224.153;  -73.775; -660.000; -671.000
224.298;  -73.375; -531.000; -489.000
224.442;  -15.200;  -74.000;  -33.000
224.586;  -22.475; -169.000; -106.000
224.730; -108.925; -858.000; -670.000
224.875; -113.100; -739.000; -688.000
225.019;    9.325;  102.000;  188.000
225.163;   39.050;  208.000;  341.000
225.307;   12.325;   97.000;  -91.000
225.451;   21.850;  360.000;  481.000
225.595;   27.200;  264.000;  176.000
225.739;  -23.275; -170.000;  -94.000
225.884;    6.600;   86.000;    5.000
226.028; -103.750; -760.000; -626.000
226.172;  -42.600; -260.000; -273.000
226.316; -124.975; -941.000; -902.000
226.460;  -64.025; -645.000; -493.000
226.604;  -47.625; -406.000; -400.000
226.748; -109.050; -836.000; -733.000
226.892;  -42.725; -227.000; -181.000
227.036;  -59.775; -537.000; -447.000
227.180;  -61.600; -551.000; -375.000
227.324;  -65.975; -561.000; -580.000
227.468; -124.575; -819.000; -717.000
227.612;    4.175;  242.000;  -28.000
227.756; -110.775; -845.000; -698.000
227.900;   42.175;  342.000;  441.000
228.044;  -55.325; -509.000; -290.000
228.188;   39.325;  448.000;  568.000
228.332;  -93.950; -546.000; -472.000
228.476;  -32.400; -223.000; -149.000
228.620;  -42.500; -210.000; -150.000
228.764;   67.525;  431.000;  349.000
228.908;  -34.875; -155.000;   30.000
229.052;  -61.825; -615.000; -528.000
229.195;  -26.975; -172.000;   13.000
229.339;  -41.150; -235.000; -305.000
229.483;  -47.550;    5.000; -162.000
229.627;    5.900; -156.000;  139.000
229.771;  -49.850; -218.000; -294.000
229.915;    4.450;  230.000;   79.000
230.059; -108.475; -648.000; -663.000
230.202;  -43.725; -370.000; -317.000
230.346;  -22.375; -107.000;  107.000
230.490;  -69.775; -489.000; -521.000
230.634; -111.825; -736.000; -553.000
230.777;   71.900;  478.000;  509.000
230.921;  -64.725; -450.000; -359.000
231.065;  -35.325; -246.000; -286.000
231.209;   25.175;  261.000;  265.000
231.352;   17.825;   54.000;   40.000
231.496;   10.900;  568.000;  188.000
231.640;  -85.100; -693.000; -621.000
231.783;   51.950;  546.000;  525.000
231.927;  -46.350; -294.000; -365.000
232.071; -129.350; -962.000; -736.000
232.214; -110.600; -980.000; -764.000
232.358; -117.275; -683.000; -599.000
232.502;    5.500;  -19.000;    7.000
232.645; -143.950;-1090.000; -927.000
232.789;  -24.650; -257.000; -218.000
232.933;  -47.875; -407.000; -224.000
233.076; -134.275;-1038.000; -897.000
233.220; -118.200; -752.000; -777.000
233.363;  -83.550; -669.000; -477.000
233.507;   53.900;  371.000;  129.000
233.650; -106.375; -764.000; -834.000
233.794;   41.775;  438.000;  461.000
233.938;  -63.250; -530.000; -362.000
234.081;  -25.825;  -93.000;   31.000
234.225;  -66.025; -631.000; -539.000
234.368; -113.350; -773.000; -723.000
234.512;  -43.325; -385.000; -299.000
234.655;  -81.350; -582.000; -555.000
234.798;  -68.750; -493.000; -466.000
234.942; -136.150; -884.000;-1002.000
235.085;  -71.525; -651.000; -443.000
235.229;  -74.225; -405.000; -410.000
235.372;  -62.925; -247.000; -191.000
235.516;  -68.750; -397.000; -321.000
235.659;   20.475;   92.000;  121.000
235.802;  -11.075;  -38.000;  -22.000
235.946;   15.850;  335.000;  215.000
236.089;   13.200;  126.000;  250.000
236.233;   41.150;  275.000;  298.000
236.376;  -51.925; -235.000; -378.000
236.519;  -46.750; -297.000; -319.000
236.663;  -27.050; -215.000; -117.000
236.806; -150.300;-1029.000; -999.000
236.949;   71.850;  543.000;  431.000
237.092;   58.475;  412.000;  391.000
237.236;  -80.625; -589.000; -502.000
237.379;   68.925;  352.000;  428.000
237.522; -125.625; -879.000; -768.000
237.666;  -30.575; -271.000;   18.000
237.809; -125.750; -851.000; -823.000
237.952;   24.775;  469.000;  271.000
238.095;  -66.500; -447.000; -442.000
238.238;   79.700;  688.000;  700.000
238.382;   -7.400;  166.000;  103.000
238.525;  -85.900; -598.000; -511.000
238.668; -145.800;-1060.000; -985.000
238.811;  -87.525; -638.000; -643.000
238.954;  -78.975; -483.000; -334.000
239.097;   87.525;  617.000;  664.000
239.241;   18.400;  394.000;  326.000
239.384;  -36.400; -254.000; -214.000
239.527;  -67.200; -424.000; -224.000
239.670; -151.525; -994.000;-1091.000
239.813; -121.725; -696.000; -658.000
239.956;   62.550;  579.000;  473.000
240.099; -119.025; -778.000; -725.000
240.242;   54.000;  428.000;  432.000
240.385;   20.100;  466.000;  450.000
240.528;  -84.600; -706.000; -473.000
240.671;   20.225;  189.000;  134.000
240.814;  -49.725; -441.000; -158.000
240.957; -115.000; -767.000; -578.000
241.100;  -93.425; -779.000; -755.000
241.243; -138.600;-1234.000; -893.000
241.386;  -74.425; -508.000; -379.000
241.529;  -88.900; -735.000; -547.000
241.672;  -72.975; -566.000; -495.000
241.815; -119.525; -832.000; -808.000
241.958;  -32.950; -125.000; -182.000
242.101;  -77.500; -545.000; -390.000
242.244;  -49.350; -270.000; -325.000
242.387;  -47.450; -304.000; -246.000
242.530;   45.800;  470.000;  134.000
242.673;  -44.100; -381.000; -309.000
242.815; -126.650; -925.000; -899.000
242.958;  -81.050; -482.000; -381.000
243.101;   14.075;  132.000;  187.000
243.244;  -93.575; -564.000; -521.000
243.387;  -51.200; -313.000; -316.000
243.530;  -95.225; -657.000; -674.000
243.672;   -3.650;   43.000;  -92.000
243.815;  -61.150; -355.000; -283.000
243.958;  -10.100;   98.000;  -26.000
244.101;   -9.575;   59.000;  -16.000
244.243;   -5.175;  -47.000;  101.000
244.386; -113.200; -761.000; -630.000
244.529;  -27.850; -132.000; -139.000
244.672; -155.850;-1154.000; -951.000
244.814; -101.700; -621.000; -794.000
244.957;  -49.825; -380.000; -304.000
245.100;  -70.875; -489.000; -489.000
245.242;  -60.150; -387.000; -374.000
245.385;   -3.850;  -59.000;  -39.000
245.528; -117.275; -871.000; -705.000
245.670;   78.875;  612.000;  634.000
245.813; -104.375; -599.000; -547.000
245.956;  -41.675; -324.000; -275.000
246.098;  -79.675; -508.000; -650.000
246.241;    2.750;  194.000;   48.000
246.383;  -10.000; -119.000;  -73.000
246.526;  -82.875; -454.000; -525.000
246.669; -129.975; -889.000; -780.000
246.811;    9.150;  172.000;   -1.000
246.954;  -76.875; -512.000; -426.000
247.096;  -37.650;  -84.000;   -6.000
247.239;  -71.500; -482.000; -445.000
247.381;  -79.450; -647.000; -488.000
247.524;   69.725;  645.000;  679.000
247.666;  -14.800;   58.000;   11.000
247.809; -123.550; -887.000; -691.000
247.951;  -14.425;  -75.000;  138.000
248.094;   29.150;  432.000;  308.000
248.236; -167.000;-1262.000;-1238.000
248.378;   -1.675; -356.000;  -81.000
248.521;  -32.200; -334.000; -337.000
248.663;  -48.375; -236.000; -267.000
248.806;  -40.700; -300.000; -266.000
248.948;  -94.400; -886.000; -763.000
249.090;  -48.975; -428.000; -398.000
249.233;  -44.375; -344.000; -381.000
249.375;  -68.000; -474.000; -451.000
249.518;  -25.700;  -83.000; -133.000
249.660;  -23.125; -103.000;    3.000
249.802; -179.850;-1303.000;-1189.000
249.945;  -88.825; -612.000; -540.000
250.087; -123.025; -834.000; -768.000
250.229;  -51.700; -362.000; -480.000
250.371;  -69.875; -494.000; -439.000
250.514;  -53.950; -310.000; -244.000
250.656;   -4.950;   69.000;  102.000
250.798; -126.625; -849.000; -800.000
250.940;  -69.025; -322.000; -322.000
251.083;  -25.225; -335.000; -111.000
251.225;   50.025;  338.000;  310.000
251.367;  -52.625; -274.000; -373.000
251.509;  -51.075; -265.000; -210.000
251.651; -100.375; -731.000; -671.000
251.794;   51.500;  538.000;  632.000
251.936; -115.950; -821.000; -747.000
252.078;  -96.875; -540.000; -461.000
252.220;  -84.625; -645.000; -477.000
252.362;   65.000;  344.000;  462.000
252.504;  -72.275; -677.000; -584.000
252.646; -127.300; -875.000; -722.000
252.788;   -5.075;   14.000; -128.000
252.931;  -36.725; -257.000; -253.000
253.073;  -38.350; -376.000; -317.000
253.215;   -4.325;  141.000;  122.000
253.357;  -25.225;   82.000; -153.000
253.499;  -56.025; -374.000; -234.000
253.641;  -84.550; -749.000; -594.000
253.783;  -86.725; -609.000; -527.000
253.925;  -92.975; -586.000; -591.000
254.067; -104.900; -744.000; -667.000
254.209;  -30.650; -391.000; -259.000
254.351; -133.925; -865.000; -883.000
254.493;  -61.875; -441.000; -417.000
254.635; -134.075; -936.000; -818.000
254.777;  -93.375; -752.000; -687.000
254.918;  -73.450; -512.000; -430.000
255.060;  -64.150; -551.000; -395.000
255.202;  -62.575; -473.000; -261.000
255.344;  -93.200; -658.000; -455.000
255.486;  -71.475; -471.000; -406.000
255.628; -120.275; -780.000; -781.000
255.770;  -92.500; -676.000; -536.000
255.912;  -76.800; -559.000; -468.000
256.053;  -99.725; -730.000; -508.000
256.195;  124.975; 1008.000;  903.000
256.337; -106.975; -861.000; -595.000
256.479;   55.425;  532.000;  416.000
256.621;  -55.300; -394.000; -212.000
256.762;  -87.800; -789.000; -742.000
256.904;   48.875;  485.000;  487.000
257.046;  -57.025; -381.000; -271.000
257.188;  -54.525; -351.000; -264.000
257.329;  -94.100; -525.000; -464.000
257.471; -121.025; -939.000; -807.000
257.613;  -79.400; -584.000; -498.000
257.755; -149.000;-1073.000; -982.000
257.896;   27.125;  286.000;  392.000
258.038;  -76.500; -403.000; -352.000
258.180;  -44.350; -354.000; -279.000
258.321;  -95.425; -581.000; -457.000
258.463;  -10.975;  -71.000;  133.000
258.605;  -97.550; -562.000; -570.000
258.746;  -95.475; -886.000; -772.000
258.888; -151.125;-1026.000;-1020.000
259.029;    3.650;  121.000;   -8.000
259.171;  -83.575; -614.000; -550.000
259.313;  -16.250;  -49.000;  -47.000
259.454;  -73.750; -536.000; -414.000
259.596;  -55.675; -483.000; -390.000
259.737;  -83.100; -590.000; -474.000
259.879;   30.800;  217.000;  311.000
260.020;   85.325;  901.000;  636.000
260.162;  -40.550; -146.000; -253.000
260.303; -125.400; -768.000; -687.000
260.445;  -87.900; -609.000; -613.000
260.586;   13.275;  392.000;  157.000
260.728;  -37.750; -360.000; -248.000
260.869; -124.975; -350.000; -343.000
261.011;   80.925;  706.000;  537.000
261.152;  -61.075; -479.000; -319.000
261.293;  -93.525; -576.000; -595.000
261.435;  -55.175; -219.000; -184.000
261.576;  -57.650; -455.000; -325.000
261.718;   52.175;  420.000;  470.000
261.859; -137.475; -940.000; -949.000
262.000; -131.725; -951.000;-1016.000
262.142;  -24.925;  -52.000;  -60.000
262.283; -114.475; -808.000; -691.000
262.424;  -99.000; -666.000; -625.000
262.566; -155.975;-1161.000; -983.000
262.707; -127.525; -840.000; -830.000
262.848; -128.775; -769.000; -726.000
262.990;  -61.675; -362.000; -345.000
263.131;   77.025;  650.000;  681.000
263.272;  -11.775;  -61.000;  -41.000
263.413;  -91.925; -589.000; -561.000
263.555;  -75.050; -669.000; -143.000
263.696;  -98.700; -550.000; -641.000
263.837;  -65.125; -449.000; -551.000
263.978;  -19.250;   -5.000;  -77.000
264.119;  -45.075; -283.000; -264.000
264.261; -130.250; -847.000; -630.000
264.402;  -17.025;   33.000;   40.000
264.543;  -82.225; -509.000; -524.000
264.684;  -14.350;   61.000;  -50.000
264.825;  -80.075; -816.000; -538.000
264.966;  -19.675;  -84.000;  -67.000
265.107; -118.400; -646.000; -670.000
265.248; -121.725; -825.000; -812.000
265.390;  -12.575;  152.000;   -9.000
265.531;  -36.800; -238.000; -107.000
265.672;  -85.775; -557.000; -630.000
265.813;   55.525;  563.000;  439.000
265.954; -155.550; -959.000; -940.000
266.095;  -19.775; -372.000; -322.000
266.236; -101.725; -686.000; -548.000
266.377;  -57.675; -243.000; -297.000
266.518;  -80.625; -619.000; -547.000
266.659;   25.650;  170.000;  268.000
266.800;   15.750;   83.000;   85.000
266.941;  -76.125; -487.000; -478.000
267.082;    2.875;  354.000;   99.000
267.223;  -52.500; -344.000; -273.000
267.364; -127.100; -892.000; -686.000
267.504;  -13.000;    3.000;  135.000
267.645;    0.225;  160.000;   67.000
267.786;  -50.525; -147.000;  -86.000
267.927;  -68.175; -473.000; -379.000
268.068;  -29.775; -186.000;  -61.000
268.209;  -55.875; -175.000; -413.000
268.350;  -70.975; -388.000; -532.000
268.490;  -84.475; -648.000; -521.000
268.631;   23.675;  127.000;  225.000
268.772; -107.675; -874.000; -647.000
268.913;  -50.725; -328.000; -476.000
269.054;  -19.225; -117.000;   12.000
269.194;  -55.625; -418.000; -402.000
269.335; -168.925;-1137.000;-1074.000
269.476;  -21.550;   33.000;  -35.000
269.617;  -68.725; -347.000; -392.000
269.757;  -85.000; -713.000; -646.000
269.898; -113.150; -856.000; -613.000
270.039;  -67.875; -415.000; -405.000
270.180; -151.350; -952.000; -816.000
270.320;  -34.475; -190.000; -250.000
