
Integration time [ms]: 200.000
Averaging Nr. [scans]: 10
Smoothing Nr. [pixels]: 0
Data measured with spectrometer [name]: 2101012U2
Wave   ;Sample   ;Dark     ;Reference
[nm]   ;[counts] ;[counts] ;[counts] 

197.733;  111.400;  516.000;  404.000
197.879; -158.600; -610.000; -634.000
198.025; -105.900; -475.000; -420.000
198.171; -169.100; -602.000; -612.000
198.317;  -79.000; -401.000; -316.000
198.463; -118.800; -655.000; -404.000
198.609;   43.600;  181.000; -137.000
198.755; -213.100; -644.000; -410.000
198.901; -181.500; -505.000; -424.000
199.047; -112.500; -615.000; -488.000
199.193;  -91.000; -230.000; -468.000
199.339;  -82.700; -222.000; -369.000
199.485;   96.500;  330.000;  271.000
199.631;   36.800;  227.000;  310.000
199.777; -108.400; -466.000; -398.000
199.923; -116.100; -610.000; -424.000
200.069;  -29.600; -141.000;  -58.000
200.215;  116.300;  128.000;  453.000
200.361;  106.100;  243.000;  477.000
200.507; -114.000; -600.000; -373.000
200.653;  -66.500; -371.000; -194.000
200.798;  -49.400; -215.000; -125.000
200.944;  -17.100; -146.000;  -41.000
201.090;   84.100;   61.000;  222.000
201.236;  -26.700; -116.000; -158.000
201.382;  252.600;  874.000;  903.000
201.528;    6.600;  -58.000;  -48.000
201.674;  -99.200; -386.000; -293.000
201.819; -143.900; -540.000; -439.000
201.965; -177.400; -699.000; -447.000
202.111;  -56.700; -273.000; -226.000
202.257;  -54.400; -250.000; -238.000
202.402;    7.500;   13.000;  -36.000
202.548;  -73.100; -169.000; -116.000
202.694;  178.200;  410.000; -183.000
202.840; -149.900; -603.000; -531.000
202.985; -152.700; -681.000; -639.000
203.131; -229.700; -832.000; -666.000
203.277;  -57.200; -199.000; -262.000
203.423; -133.200; -434.000; -520.000
203.568;  -64.400; -462.000; -237.000
203.714; -116.300; -535.000; -542.000
203.860; -172.800; -682.000; -641.000
204.005;   24.000;  112.000;  167.000
204.151;  165.700;  561.000;  556.000
204.296; -119.300; -354.000; -221.000
204.442; -178.500; -600.000; -547.000
204.588; -159.800; -592.000; -579.000
204.733;   49.500;  178.000;  168.000
204.879; -265.800;-1018.000; -822.000
205.025;   21.300;  -99.000;  126.000
205.170;    6.900;  -17.000;   94.000
205.316;  169.300;  438.000;  661.000
205.461; -182.800; -698.000; -554.000
205.607;  161.900;  609.000;  665.000
205.752; -162.900; -626.000; -551.000
205.898;  -70.000; -501.000; -391.000
206.043; -130.700; -578.000; -506.000
206.189;  -88.200; -243.000; -285.000
206.334;  142.200;  554.000;  606.000
206.480;  185.500;  409.000;  239.000
206.625; -173.800; -529.000; -552.000
206.771; -106.900; -451.000; -373.000
206.916;  -55.000; -210.000; -537.000
207.062; -155.800; -545.000; -591.000
207.207; -110.900; -546.000; -443.000
207.353;  130.200;  185.000;  460.000
207.498;   64.600;  196.000;   85.000
207.643;  -93.100; -501.000; -370.000
207.789; -268.600;-1069.000; -910.000
207.934; -189.600; -665.000; -713.000
208.080;  -55.000; -154.000;   66.000
208.225;  -20.300;  -22.000;  -57.000
208.370; -186.300; -727.000; -619.000
208.516; -172.100; -741.000; -487.000
208.661;  -65.600; -127.000;  -69.000
208.806;  -65.400; -165.000; -171.000
208.952; -276.700;-1044.000; -731.000
209.097;  179.000;  378.000;  349.000
209.242; -122.100; -307.000; -382.000
209.387;  101.700;  392.000;  350.000
209.533;  -76.500; -321.000; -350.000
209.678;  165.400;  472.000;  543.000
209.823; -116.700; -408.000; -310.000
209.969; -203.100; -860.000; -757.000
210.114; -203.600; -907.000; -719.000
210.259; -252.600; -939.000; -889.000
210.404;  -39.500; -171.000;  103.000
210.549;   32.800;  108.000;    3.000
210.695;  -16.100;   -3.000;  -95.000
210.840;  105.200;   94.000;   67.000
210.985; -169.700; -484.000; -303.000
211.130;  159.400;  268.000;  406.000
211.275;   55.000;  207.000;  199.000
211.420; -113.700; -300.000; -289.000
211.566; -134.200; -536.000; -489.000
211.711;   66.500;  218.000;  157.000
211.856; -115.000; -545.000; -519.000
212.001;   35.500;  151.000;   44.000
212.146;   18.900;  153.000;   49.000
212.291;  -53.800; -210.000; -186.000
212.436;  -41.600; -280.000;   -6.000
212.581; -151.600; -685.000; -653.000
212.726; -162.000; -487.000; -538.000
212.871;  -86.500; -552.000; -217.000
213.016; -285.100;-1172.000;-1029.000
213.161;  132.400;  406.000;  291.000
213.306; -150.500; -435.000; -577.000
213.451; -195.100; -778.000; -689.000
213.596;  -89.100; -455.000; -347.000
213.741; -120.000; -448.000; -538.000
213.886; -150.000; -498.000; -517.000
214.031;  -38.900; -294.000; -124.000
214.176; -128.200; -408.000; -341.000
214.321;  -53.300; -296.000; -157.000
214.466;  -33.100; -163.000;  -43.000
214.611;   21.600;  -61.000;  -10.000
214.756; -254.900; -948.000; -858.000
214.901;  -48.300; -388.000; -226.000
215.046; -238.400; -797.000; -825.000
215.191;   22.100;  128.000;   35.000
215.336;  -30.100; -157.000;  -19.000
215.480; -118.200; -684.000; -505.000
215.625;  -28.600; -175.000;  -19.000
215.770; -158.300; -757.000; -662.000
215.915;  -15.700;   -5.000;  -97.000
216.060;   19.100; -113.000;  -21.000
216.205; -212.000; -731.000; -779.000
216.349; -157.000; -470.000; -533.000
216.494; -266.900; -939.000; -867.000
216.639; -222.400; -823.000; -888.000
216.784; -192.000; -577.000; -525.000
216.929;  132.300;  392.000;  281.000
217.073;  -23.200; -244.000;  -31.000
217.218;   17.400;   78.000;  -47.000
217.363; -168.100; -656.000; -618.000
217.507; -162.900; -623.000; -588.000
217.652; -276.300; -845.000; -874.000
217.797; -192.200; -708.000; -659.000
217.942; -223.500; -856.000; -720.000
218.086;  170.400;  608.000;  539.000
218.231;  -33.300; -174.000;  -26.000
218.376;  -62.400; -337.000; -229.000
218.520;   20.900;  -41.000;   96.000
218.665;  -50.600; -338.000; -204.000
218.810;  -75.400; -275.000; -233.000
218.954;   40.800;  201.000;   35.000
219.099; -240.800; -713.000; -963.000
219.243; -134.300; -589.000; -554.000
219.388;  -42.000; -264.000; -136.000
219.532;   -3.300; -116.000; -116.000
219.677; -158.100; -564.000; -521.000
219.822;   27.600;   33.000;   89.000
219.966;   22.100;   17.000;  -99.000
220.111;  -47.200; -328.000;  -40.000
220.255; -203.100; -797.000; -750.000
220.400;  -42.200; -180.000; -146.000
220.544; -139.500; -516.000; -450.000
220.689; -129.500; -422.000; -451.000
220.833;  -25.600; -123.000;  -58.000
220.978;  -98.500; -393.000; -563.000
221.122;   60.500;  319.000;  307.000
221.267; -235.700; -906.000; -837.000
221.411; -130.600; -478.000; -394.000
221.555;   10.300; -104.000;  -23.000
221.700; -114.200; -329.000; -222.000
221.844;   75.500;  255.000;  272.000
221.989;  -81.900; -328.000; -311.000
222.133;  -72.100; -289.000; -307.000
222.277;    7.900;    5.000;   78.000
222.422;   20.700;  227.000;  113.000
222.566;  -70.100; -381.000; -214.000
222.711; -122.700; -414.000; -479.000
222.855; -162.100; -643.000; -586.000
222.999; -175.200; -642.000; -717.000
223.144;  -83.700; -195.000; -194.000
223.288;  141.300;  423.000;  251.000
223.432;   13.400;  184.000;  230.000
223.576;   62.500;  152.000;  -21.000
223.721;  108.800;  364.000;  273.000
223.865; -120.000; -472.000; -475.000
224.009;  545.900; 1673.000; 1631.000
224.153; -150.600; -660.000; -671.000
224.298; -151.300; -531.000; -489.000
224.442;  -27.500;  -74.000;  -33.000
224.586;    3.800; -169.000; -106.000
224.730; -211.800; -858.000; -670.000
224.875; -228.400; -739.000; -688.000
225.019;   49.700;  102.000;  188.000
225.163;  133.900;  208.000;  341.000
225.307;   31.700;   97.000;  -91.000
225.451;  104.300;  360.000;  481.000
225.595;   96.600;  264.000;  176.000
225.739;  -45.100; -170.000;  -94.000
225.884;   11.400;   86.000;    5.000
226.028; -218.300; -760.000; -626.000
226.172;  -65.500; -260.000; -273.000
226.316; -239.900; -941.000; -902.000
226.460; -150.400; -645.000; -493.000
226.604; -109.100; -406.000; -400.000
226.748; -225.800; -836.000; -733.000
226.892;  -53.600; -227.000; -181.000
227.036;  -93.400; -537.000; -447.000
227.180; -108.500; -551.000; -375.000
227.324; -152.400; -561.000; -580.000
227.468; -212.400; -819.000; -717.000
227.612;   33.600;  242.000;  -28.000
227.756; -209.300; -845.000; -698.000
227.900;  102.700;  342.000;  441.000
228.044; -125.000; -509.000; -290.000
228.188;  137.500;  448.000;  568.000
228.332; -171.800; -546.000; -472.000
228.476;  -61.700; -223.000; -149.000
228.620;  -43.300; -210.000; -150.000
228.764;  168.700;  431.000;  349.000
228.908;  -30.900; -155.000;   30.000
229.052; -138.900; -615.000; -528.000
229.195;  -19.200; -172.000;   13.000
229.339;  -53.800; -235.000; -305.000
229.483;  -33.800;    5.000; -162.000
229.627;  -26.900; -156.000;  139.000
229.771;  -87.900; -218.000; -294.000
229.915;   30.500;  230.000;   79.000
230.059; -165.300; -648.000; -663.000
230.202;  -88.500; -370.000; -317.000
230.346;  -14.200; -107.000;  107.000
230.490; -114.400; -489.000; -521.000
230.634; -223.700; -736.000; -553.000
230.777;  167.500;  478.000;  509.000
230.921; -124.800; -450.000; -359.000
231.065;  -76.700; -246.000; -286.000
231.209;   78.900;  261.000;  265.000
231.352;   68.200;   54.000;   40.000
231.496;   40.000;  568.000;  188.000
231.640; -167.300; -693.000; -621.000
231.783;  165.500;  546.000;  525.000
231.927;  -70.100; -294.000; -365.000
232.071; -247.700; -962.000; -736.000
232.214; -231.200; -980.000; -764.000
232.358; -213.400; -683.000; -599.000
232.502;   28.100;  -19.000;    7.000
232.645; -268.000;-1090.000; -927.000
232.789;   -7.700; -257.000; -218.000
232.933;  -92.800; -407.000; -224.000
233.076; -250.500;-1038.000; -897.000
233.220; -183.500; -752.000; -777.000
233.363; -188.600; -669.000; -477.000
233.507;  151.000;  371.000;  129.000
233.650; -178.900; -764.000; -834.000
233.794;   84.500;  438.000;  461.000
233.938; -104.900; -530.000; -362.000
234.081;  -34.700;  -93.000;   31.000
234.225; -120.400; -631.000; -539.000
234.368; -231.300; -773.000; -723.000
234.512;  -57.400; -385.000; -299.000
234.655; -177.400; -582.000; -555.000
234.798; -157.000; -493.000; -466.000
234.942; -265.200; -884.000;-1002.000
235.085; -132.900; -651.000; -443.000
235.229; -121.100; -405.000; -410.000
235.372; -102.700; -247.000; -191.000
235.516;  -91.200; -397.000; -321.000
235.659;   55.600;   92.000;  121.000
235.802;  -30.300;  -38.000;  -22.000
235.946;   72.100;  335.000;  215.000
236.089;   78.000;  126.000;  250.000
236.233;  125.100;  275.000;  298.000
236.376;  -74.900; -235.000; -378.000
236.519;  -85.200; -297.000; -319.000
236.663;  -47.600; -215.000; -117.000
236.806; -293.200;-1029.000; -999.000
236.949;  121.600;  543.000;  431.000
237.092;  159.500;  412.000;  391.000
237.236; -175.700; -589.000; -502.000
237.379;  149.300;  352.000;  428.000
237.522; -251.500; -879.000; -768.000
237.666;  -29.100; -271.000;   18.000
237.809; -257.900; -851.000; -823.000
237.952;   93.500;  469.000;  271.000
238.095;  -97.100; -447.000; -442.000
238.238;  221.700;  688.000;  700.000
238.382;    2.800;  166.000;  103.000
238.525; -139.900; -598.000; -511.000
238.668; -283.800;-1060.000; -985.000
238.811; -145.300; -638.000; -643.000
238.954;  -94.100; -483.000; -334.000
239.097;  226.500;  617.000;  664.000
239.241;   83.700;  394.000;  326.000
239.384;  -69.000; -254.000; -214.000
239.527; -109.500; -424.000; -224.000
239.670; -290.600; -994.000;-1091.000
239.813; -199.000; -696.000; -658.000
239.956;  180.700;  579.000;  473.000
240.099; -243.900; -778.000; -725.000
240.242;  146.700;  428.000;  432.000
240.385;  111.800;  466.000;  450.000
240.528; -106.500; -706.000; -473.000
240.671;   41.700;  189.000;  134.000
240.814;  -58.600; -441.000; -158.000
240.957; -200.900; -767.000; -578.000
241.100; -181.000; -779.000; -755.000
241.243; -284.700;-1234.000; -893.000
241.386; -145.000; -508.000; -379.000
241.529; -159.400; -735.000; -547.000
241.672; -118.000; -566.000; -495.000
241.815; -235.200; -832.000; -808.000
241.958;  -29.500; -125.000; -182.000
242.101; -175.500; -545.000; -390.000
242.244;  -56.700; -270.000; -325.000
242.387;  -51.900; -304.000; -246.000
242.530;  159.500;  470.000;  134.000
242.673;  -53.300; -381.000; -309.000
242.815; -229.100; -925.000; -899.000
242.958; -125.300; -482.000; -381.000
243.101;   37.800;  132.000;  187.000
243.244; -153.000; -564.000; -521.000
243.387;  -96.900; -313.000; -316.000
243.530; -182.200; -657.000; -674.000
243.672;   13.600;   43.000;  -92.000
243.815;  -95.700; -355.000; -283.000
243.958;   20.800;   98.000;  -26.000
244.101;  -13.300;   59.000;  -16.000
244.243;  -23.500;  -47.000;  101.000
244.386; -227.800; -761.000; -630.000
244.529;  -31.700; -132.000; -139.000
244.672; -350.700;-1154.000; -951.000
244.814; -205.700; -621.000; -794.000
244.957; -133.100; -380.000; -304.000
245.100; -140.100; -489.000; -489.000
245.242; -124.800; -387.000; -374.000
245.385;  -13.900;  -59.000;  -39.000
245.528; -250.100; -871.000; -705.000
245.670;  216.000;  612.000;  634.000
245.813; -175.700; -599.000; -547.000
245.956;  -45.600; -324.000; -275.000
246.098; -153.300; -508.000; -650.000
246.241;   24.500;  194.000;   48.000
246.383;  -46.600; -119.000;  -73.000
246.526; -164.000; -454.000; -525.000
246.669; -239.700; -889.000; -780.000
246.811;   92.800;  172.000;   -1.000
246.954; -129.500; -512.000; -426.000
247.096;  -50.000;  -84.000;   -6.000
247.239; -130.600; -482.000; -445.000
247.381; -178.000; -647.000; -488.000
247.524;  173.300;  645.000;  679.000
247.666;   11.800;   58.000;   11.000
247.809; -225.100; -887.000; -691.000
247.951;  -10.900;  -75.000;  138.000
248.094;   78.500;  432.000;  308.000
248.236; -334.600;-1262.000;-1238.000
248.378;  -45.200; -356.000;  -81.000
248.521;  -76.600; -334.000; -337.000
248.663;  -62.700; -236.000; -267.000
248.806;  -41.600; -300.000; -266.000
248.948; -247.900; -886.000; -763.000
249.090; -126.100; -428.000; -398.000
249.233; -158.000; -344.000; -381.000
249.375; -127.600; -474.000; -451.000
249.518;  -19.900;  -83.000; -133.000
249.660;   -5.700; -103.000;    3.000
249.802; -378.500;-1303.000;-1189.000
249.945; -177.200; -612.000; -540.000
250.087; -226.000; -834.000; -768.000
250.229; -108.100; -362.000; -480.000
250.371; -129.500; -494.000; -439.000
250.514;  -91.900; -310.000; -244.000
250.656;    9.600;   69.000;  102.000
250.798; -233.400; -849.000; -800.000
250.940; -109.600; -322.000; -322.000
251.083;  -52.200; -335.000; -111.000
251.225;  133.600;  338.000;  310.000
251.367;  -60.500; -274.000; -373.000
251.509;  -68.800; -265.000; -210.000
251.651; -197.300; -731.000; -671.000
251.794;  107.600;  538.000;  632.000
251.936; -242.600; -821.000; -747.000
252.078; -171.200; -540.000; -461.000
252.220; -173.000; -645.000; -477.000
252.362;  107.700;  344.000;  462.000
252.504; -171.500; -677.000; -584.000
252.646; -223.900; -875.000; -722.000
252.788;  -39.900;   14.000; -128.000
252.931; -100.800; -257.000; -253.000
253.073; -110.900; -376.000; -317.000
253.215;  -19.200;  141.000;  122.000
253.357;   -5.000;   82.000; -153.000
253.499; -111.600; -374.000; -234.000
253.641; -181.700; -749.000; -594.000
253.783; -213.400; -609.000; -527.000
253.925; -185.900; -586.000; -591.000
254.067; -198.000; -744.000; -667.000
254.209;  -86.000; -391.000; -259.000
254.351; -277.300; -865.000; -883.000
254.493; -127.500; -441.000; -417.000
254.635; -251.500; -936.000; -818.000
254.777; -172.300; -752.000; -687.000
254.918; -141.800; -512.000; -430.000
255.060; -104.800; -551.000; -395.000
255.202; -121.400; -473.000; -261.000
255.344; -157.200; -658.000; -455.000
255.486; -106.400; -471.000; -406.000
255.628; -247.100; -780.000; -781.000
255.770; -169.400; -676.000; -536.000
255.912; -128.200; -559.000; -468.000
256.053; -180.000; -730.000; -508.000
256.195;  364.600; 1008.000;  903.000
256.337; -211.800; -861.000; -595.000
256.479;  145.400;  532.000;  416.000
256.621; -105.400; -394.000; -212.000
256.762; -185.900; -789.000; -742.000
256.904;  141.500;  485.000;  487.000
257.046;  -44.700; -381.000; -271.000
257.188;  -85.800; -351.000; -264.000
257.329; -169.400; -525.000; -464.000
257.471; -247.900; -939.000; -807.000
257.613; -152.900; -584.000; -498.000
257.755; -329.200;-1073.000; -982.000
257.896;   66.600;  286.000;  392.000
258.038; -117.000; -403.000; -352.000
258.180;  -74.300; -354.000; -279.000
258.321; -134.200; -581.000; -457.000
258.463;   -6.000;  -71.000;  133.000
258.605; -192.300; -562.000; -570.000
258.746; -198.100; -886.000; -772.000
258.888; -293.300;-1026.000;-1020.000
259.029;   57.200;  121.000;   -8.000
259.171; -189.600; -614.000; -550.000
259.313;    2.800;  -49.000;  -47.000
259.454; -135.900; -536.000; -414.000
259.596;  -89.600; -483.000; -390.000
259.737; -140.500; -590.000; -474.000
259.879;   77.700;  217.000;  311.000
260.020;  172.600;  901.000;  636.000
260.162;  -42.700; -146.000; -253.000
260.303; -238.600; -768.000; -687.000
260.445; -173.100; -609.000; -613.000
260.586;   74.500;  392.000;  157.000
260.728;  -86.900; -360.000; -248.000
260.869; -150.100; -350.000; -343.000
261.011;  174.700;  706.000;  537.000
261.152; -143.200; -479.000; -319.000
261.293; -186.300; -576.000; -595.000
261.435;  -33.500; -219.000; -184.000
261.576;  -89.600; -455.000; -325.000
261.718;  138.700;  420.000;  470.000
261.859; -244.100; -940.000; -949.000
262.000; -263.600; -951.000;-1016.000
262.142;  -16.500;  -52.000;  -60.000
262.283; -270.400; -808.000; -691.000
262.424; -181.500; -666.000; -625.000
262.566; -307.800;-1161.000; -983.000
262.707; -233.600; -840.000; -830.000
262.848; -236.600; -769.000; -726.000
262.990;  -82.400; -362.000; -345.000
263.131;  205.900;  650.000;  681.000
263.272;   10.200;  -61.000;  -41.000
263.413; -184.000; -589.000; -561.000
263.555;  -98.900; -669.000; -143.000
263.696; -176.500; -550.000; -641.000
263.837; -111.700; -449.000; -551.000
263.978;   13.100;   -5.000;  -77.000
264.119;  -57.000; -283.000; -264.000
264.261; -208.800; -847.000; -630.000
264.402;   27.600;   33.000;   40.000
264.543; -146.500; -509.000; -524.000
264.684;   28.400;   61.000;  -50.000
264.825; -147.500; -816.000; -538.000
264.966;   23.400;  -84.000;  -67.000
265.107; -238.500; -646.000; -670.000
265.248; -240.200; -825.000; -812.000
265.390;   -2.600;  152.000;   -9.000
265.531;  -45.300; -238.000; -107.000
265.672; -180.800; -557.000; -630.000
265.813;  130.000;  563.000;  439.000
265.954; -285.400; -959.000; -940.000
266.095;  -34.400; -372.000; -322.000
266.236; -212.000; -686.000; -548.000
266.377;  -75.000; -243.000; -297.000
266.518; -124.700; -619.000; -547.000
266.659;   62.400;  170.000;  268.000
266.800;   38.200;   83.000;   85.000
266.941; -127.500; -487.000; -478.000
267.082;   26.900;  354.000;   99.000
267.223; -134.700; -344.000; -273.000
267.364; -266.200; -892.000; -686.000
267.504;  -17.300;    3.000;  135.000
267.645;   34.800;  160.000;   67.000
267.786;  -51.000; -147.000;  -86.000
267.927; -128.600; -473.000; -379.000
268.068;  -46.900; -186.000;  -61.000
268.209;  -86.600; -175.000; -413.000
268.350; -101.700; -388.000; -532.000
268.490; -191.300; -648.000; -521.000
268.631;   87.800;  127.000;  225.000
268.772; -215.300; -874.000; -647.000
268.913; -117.200; -328.000; -476.000
269.054;  -20.200; -117.000;   12.000
269.194;  -90.600; -418.000; -402.000
269.335; -312.500;-1137.000;-1074.000
269.476;  -30.000;   33.000;  -35.000
269.617;  -92.400; -347.000; -392.000
269.757; -205.800; -713.000; -646.000
269.898; -197.900; -856.000; -613.000
270.039; -146.800; -415.000; -405.000
270.180; -284.200; -952.000; -816.000
270.320;  -41.100; -190.000; -250.000
