
Integration time [ms]: 200.000
Averaging Nr. [scans]: 10
Smoothing Nr. [pixels]: 0
Data measured with spectrometer [name]: 2101012U2
Wave   ;Sample   ;Dark     ;Reference
[nm]   ;[counts] ;[counts] ;[counts] 

197.733;  123.100;  516.000;  404.000
197.879; -141.100; -610.000; -634.000
198.025;  -69.800; -475.000; -420.000
198.171; -132.800; -602.000; -612.000
198.317;  -37.200; -401.000; -316.000
198.463; -103.300; -655.000; -404.000
198.609;   62.300;  181.000; -137.000
198.755; -161.300; -644.000; -410.000
198.901; -137.300; -505.000; -424.000
199.047; -124.400; -615.000; -488.000
199.193;  -77.000; -230.000; -468.000
199.339;  -61.200; -222.000; -369.000
199.485;   86.700;  330.000;  271.000
199.631;   62.200;  227.000;  310.000
199.777; -109.100; -466.000; -398.000
199.923; -132.000; -610.000; -424.000
200.069;   11.500; -141.000;  -58.000
200.215;  105.700;  128.000;  453.000
200.361;  123.100;  243.000;  477.000
200.507; -143.800; -600.000; -373.000
200.653;  -50.200; -371.000; -194.000
200.798;  -76.500; -215.000; -125.000
200.944;   10.300; -146.000;  -41.000
201.090;  115.300;   61.000;  222.000
201.236;    7.500; -116.000; -158.000
201.382;  308.100;  874.000;  903.000
201.528;   19.400;  -58.000;  -48.000
201.674;  -75.100; -386.000; -293.000
201.819; -123.400; -540.000; -439.000
201.965; -181.900; -699.000; -447.000
202.111;  -65.100; -273.000; -226.000
202.257;  -76.900; -250.000; -238.000
202.402;   25.400;   13.000;  -36.000
202.548;  -72.300; -169.000; -116.000
202.694;  173.800;  410.000; -183.000
202.840; -142.000; -603.000; -531.000
202.985; -137.800; -681.000; -639.000
203.131; -225.500; -832.000; -666.000
203.277;  -17.800; -199.000; -262.000
203.423; -110.200; -434.000; -520.000
203.568;  -70.800; -462.000; -237.000
203.714; -146.900; -535.000; -542.000
203.860; -162.400; -682.000; -641.000
204.005;   50.000;  112.000;  167.000
204.151;  180.200;  561.000;  556.000
204.296;  -68.500; -354.000; -221.000
204.442; -125.300; -600.000; -547.000
204.588; -127.600; -592.000; -579.000
204.733;   50.600;  178.000;  168.000
204.879; -252.400;-1018.000; -822.000
205.025;   55.400;  -99.000;  126.000
205.170;  -12.700;  -17.000;   94.000
205.316;  211.300;  438.000;  661.000
205.461; -189.700; -698.000; -554.000
205.607;  195.600;  609.000;  665.000
205.752; -171.200; -626.000; -551.000
205.898;  -83.400; -501.000; -391.000
206.043; -130.600; -578.000; -506.000
206.189;  -88.800; -243.000; -285.000
206.334;  181.900;  554.000;  606.000
206.480;  154.500;  409.000;  239.000
206.625; -149.400; -529.000; -552.000
206.771;  -81.600; -451.000; -373.000
206.916;  -67.700; -210.000; -537.000
207.062; -157.700; -545.000; -591.000
207.207; -143.800; -546.000; -443.000
207.353;  110.600;  185.000;  460.000
207.498;   55.900;  196.000;   85.000
207.643; -104.200; -501.000; -370.000
207.789; -248.400;-1069.000; -910.000
207.934; -189.400; -665.000; -713.000
208.080;  -33.100; -154.000;   66.000
208.225;   -7.100;  -22.000;  -57.000
208.370; -157.500; -727.000; -619.000
208.516; -141.200; -741.000; -487.000
208.661;   -5.500; -127.000;  -69.000
208.806;  -30.600; -165.000; -171.000
208.952; -272.300;-1044.000; -731.000
209.097;  178.600;  378.000;  349.000
209.242; -105.000; -307.000; -382.000
209.387;  138.900;  392.000;  350.000
209.533; -107.500; -321.000; -350.000
209.678;  189.600;  472.000;  543.000
209.823;  -97.800; -408.000; -310.000
209.969; -171.600; -860.000; -757.000
210.114; -235.200; -907.000; -719.000
210.259; -225.600; -939.000; -889.000
210.404;    6.600; -171.000;  103.000
210.549;   50.800;  108.000;    3.000
210.695;  -34.200;   -3.000;  -95.000
210.840;  103.300;   94.000;   67.000
210.985; -122.800; -484.000; -303.000
211.130;  172.000;  268.000;  406.000
211.275;   67.900;  207.000;  199.000
211.420;  -57.600; -300.000; -289.000
211.566; -134.900; -536.000; -489.000
211.711;   72.600;  218.000;  157.000
211.856; -141.800; -545.000; -519.000
212.001;   56.000;  151.000;   44.000
212.146;   31.900;  153.000;   49.000
212.291;  -27.800; -210.000; -186.000
212.436;  -24.200; -280.000;   -6.000
212.581; -150.500; -685.000; -653.000
212.726; -141.500; -487.000; -538.000
212.871; -111.300; -552.000; -217.000
213.016; -288.100;-1172.000;-1029.000
213.161;  172.000;  406.000;  291.000
213.306; -142.200; -435.000; -577.000
213.451; -182.700; -778.000; -689.000
213.596;  -79.000; -455.000; -347.000
213.741;  -65.100; -448.000; -538.000
213.886; -164.000; -498.000; -517.000
214.031;  -20.800; -294.000; -124.000
214.176;  -67.400; -408.000; -341.000
214.321;  -27.300; -296.000; -157.000
214.466;   -7.200; -163.000;  -43.000
214.611;  -15.500;  -61.000;  -10.000
214.756; -247.700; -948.000; -858.000
214.901;  -35.200; -388.000; -226.000
215.046; -255.000; -797.000; -825.000
215.191;   35.200;  128.000;   35.000
215.336;  -35.100; -157.000;  -19.000
215.480; -133.500; -684.000; -505.000
215.625;    0.200; -175.000;  -19.000
215.770; -157.500; -757.000; -662.000
215.915;  -10.700;   -5.000;  -97.000
216.060;   16.400; -113.000;  -21.000
216.205; -186.000; -731.000; -779.000
216.349; -127.800; -470.000; -533.000
216.494; -265.500; -939.000; -867.000
216.639; -216.700; -823.000; -888.000
216.784; -152.800; -577.000; -525.000
216.929;  142.000;  392.000;  281.000
217.073;    2.900; -244.000;  -31.000
217.218;   42.500;   78.000;  -47.000
217.363; -180.500; -656.000; -618.000
217.507; -153.400; -623.000; -588.000
217.652; -232.200; -845.000; -874.000
217.797; -183.600; -708.000; -659.000
217.942; -204.600; -856.000; -720.000
218.086;  215.500;  608.000;  539.000
218.231;  -49.300; -174.000;  -26.000
218.376;  -65.600; -337.000; -229.000
218.520;   40.500;  -41.000;   96.000
218.665;  -31.800; -338.000; -204.000
218.810;  -86.400; -275.000; -233.000
218.954;   94.900;  201.000;   35.000
219.099; -237.800; -713.000; -963.000
219.243; -135.500; -589.000; -554.000
219.388;  -17.300; -264.000; -136.000
219.532;   -0.600; -116.000; -116.000
219.677; -130.300; -564.000; -521.000
219.822;    1.000;   33.000;   89.000
219.966;   50.400;   17.000;  -99.000
220.111;  -60.200; -328.000;  -40.000
220.255; -148.000; -797.000; -750.000
220.400;  -19.600; -180.000; -146.000
220.544; -118.300; -516.000; -450.000
220.689; -112.400; -422.000; -451.000
220.833;  -34.100; -123.000;  -58.000
220.978;  -84.200; -393.000; -563.000
221.122;   49.600;  319.000;  307.000
221.267; -207.800; -906.000; -837.000
221.411; -115.100; -478.000; -394.000
221.555;   -7.100; -104.000;  -23.000
221.700;  -78.200; -329.000; -222.000
221.844;  102.800;  255.000;  272.000
221.989;  -67.400; -328.000; -311.000
222.133;  -51.300; -289.000; -307.000
222.277;    7.200;    5.000;   78.000
222.422;   55.400;  227.000;  113.000
222.566;  -45.600; -381.000; -214.000
222.711;  -97.300; -414.000; -479.000
222.855; -157.800; -643.000; -586.000
222.999; -183.600; -642.000; -717.000
223.144;  -23.800; -195.000; -194.000
223.288;  123.200;  423.000;  251.000
223.432;   44.000;  184.000;  230.000
223.576;   63.900;  152.000;  -21.000
223.721;   95.500;  364.000;  273.000
223.865;  -88.500; -472.000; -475.000
224.009;  532.700; 1673.000; 1631.000
224.153; -130.800; -660.000; -671.000
224.298; -129.200; -531.000; -489.000
224.442;  -10.400;  -74.000;  -33.000
224.586;   17.700; -169.000; -106.000
224.730; -184.400; -858.000; -670.000
224.875; -216.800; -739.000; -688.000
225.019;   75.200;  102.000;  188.000
225.163;  157.500;  208.000;  341.000
225.307;   61.000;   97.000;  -91.000
225.451;  101.400;  360.000;  481.000
225.595;  102.700;  264.000;  176.000
225.739;  -31.100; -170.000;  -94.000
225.884;   61.800;   86.000;    5.000
226.028; -167.400; -760.000; -626.000
226.172;  -41.900; -260.000; -273.000
226.316; -220.100; -941.000; -902.000
226.460; -135.900; -645.000; -493.000
226.604;  -87.600; -406.000; -400.000
226.748; -205.000; -836.000; -733.000
226.892;  -62.700; -227.000; -181.000
227.036;  -99.800; -537.000; -447.000
227.180; -108.800; -551.000; -375.000
227.324; -118.600; -561.000; -580.000
227.468; -219.100; -819.000; -717.000
227.612;   43.800;  242.000;  -28.000
227.756; -196.500; -845.000; -698.000
227.900;  153.300;  342.000;  441.000
228.044; -100.000; -509.000; -290.000
228.188;  135.200;  448.000;  568.000
228.332; -159.300; -546.000; -472.000
228.476;  -30.900; -223.000; -149.000
228.620;  -54.200; -210.000; -150.000
228.764;  154.500;  431.000;  349.000
228.908;  -45.100; -155.000;   30.000
229.052; -116.700; -615.000; -528.000
229.195;  -14.900; -172.000;   13.000
229.339;  -25.900; -235.000; -305.000
229.483;  -28.100;    5.000; -162.000
229.627;   24.800; -156.000;  139.000
229.771;  -82.700; -218.000; -294.000
229.915;   27.800;  230.000;   79.000
230.059; -186.600; -648.000; -663.000
230.202;  -43.900; -370.000; -317.000
230.346;  -34.800; -107.000;  107.000
230.490;  -92.800; -489.000; -521.000
230.634; -215.700; -736.000; -553.000
230.777;  188.500;  478.000;  509.000
230.921;  -83.300; -450.000; -359.000
231.065;  -69.300; -246.000; -286.000
231.209;   67.200;  261.000;  265.000
231.352;   77.600;   54.000;   40.000
231.496;   44.800;  568.000;  188.000
231.640; -173.800; -693.000; -621.000
231.783;  184.400;  546.000;  525.000
231.927;  -76.300; -294.000; -365.000
232.071; -215.000; -962.000; -736.000
232.214; -211.400; -980.000; -764.000
232.358; -161.200; -683.000; -599.000
232.502;   53.700;  -19.000;    7.000
232.645; -256.000;-1090.000; -927.000
232.789;  -28.000; -257.000; -218.000
232.933;  -54.800; -407.000; -224.000
233.076; -227.200;-1038.000; -897.000
233.220; -215.200; -752.000; -777.000
233.363; -129.500; -669.000; -477.000
233.507;  126.400;  371.000;  129.000
233.650; -175.700; -764.000; -834.000
233.794;  156.200;  438.000;  461.000
233.938;  -86.200; -530.000; -362.000
234.081;  -21.700;  -93.000;   31.000
234.225; -120.100; -631.000; -539.000
234.368; -217.300; -773.000; -723.000
234.512;  -33.600; -385.000; -299.000
234.655; -167.700; -582.000; -555.000
234.798; -127.300; -493.000; -466.000
234.942; -254.600; -884.000;-1002.000
235.085; -126.400; -651.000; -443.000
235.229; -145.200; -405.000; -410.000
235.372;  -59.500; -247.000; -191.000
235.516; -132.300; -397.000; -321.000
235.659;   52.600;   92.000;  121.000
235.802;   -3.000;  -38.000;  -22.000
235.946;   65.300;  335.000;  215.000
236.089;   65.700;  126.000;  250.000
236.233;  153.100;  275.000;  298.000
236.376;  -75.000; -235.000; -378.000
236.519;  -62.200; -297.000; -319.000
236.663;  -52.600; -215.000; -117.000
236.806; -271.600;-1029.000; -999.000
236.949;  146.100;  543.000;  431.000
237.092;  206.100;  412.000;  391.000
237.236; -157.200; -589.000; -502.000
237.379;  154.000;  352.000;  428.000
237.522; -225.700; -879.000; -768.000
237.666;   -6.600; -271.000;   18.000
237.809; -246.800; -851.000; -823.000
237.952;  109.100;  469.000;  271.000
238.095;  -77.600; -447.000; -442.000
238.238;  236.800;  688.000;  700.000
238.382;   28.900;  166.000;  103.000
238.525; -123.000; -598.000; -511.000
238.668; -277.100;-1060.000; -985.000
238.811; -119.300; -638.000; -643.000
238.954;  -89.100; -483.000; -334.000
239.097;  220.300;  617.000;  664.000
239.241;  102.900;  394.000;  326.000
239.384;  -34.000; -254.000; -214.000
239.527; -110.100; -424.000; -224.000
239.670; -279.600; -994.000;-1091.000
239.813; -201.700; -696.000; -658.000
239.956;  216.100;  579.000;  473.000
240.099; -211.700; -778.000; -725.000
240.242;  106.400;  428.000;  432.000
240.385;  107.000;  466.000;  450.000
240.528; -126.800; -706.000; -473.000
240.671;   72.800;  189.000;  134.000
240.814;  -58.100; -441.000; -158.000
240.957; -194.400; -767.000; -578.000
241.100; -162.900; -779.000; -755.000
241.243; -282.600;-1234.000; -893.000
241.386; -106.500; -508.000; -379.000
241.529; -186.000; -735.000; -547.000
241.672;  -79.100; -566.000; -495.000
241.815; -221.500; -832.000; -808.000
241.958;   -5.700; -125.000; -182.000
242.101; -143.700; -545.000; -390.000
242.244;  -65.700; -270.000; -325.000
242.387;  -29.800; -304.000; -246.000
242.530;  180.600;  470.000;  134.000
242.673;  -81.200; -381.000; -309.000
242.815; -208.800; -925.000; -899.000
242.958; -128.100; -482.000; -381.000
243.101;   41.900;  132.000;  187.000
243.244; -145.700; -564.000; -521.000
243.387;  -70.000; -313.000; -316.000
243.530; -148.100; -657.000; -674.000
243.672;   32.000;   43.000;  -92.000
243.815;  -84.600; -355.000; -283.000
243.958;   51.400;   98.000;  -26.000
244.101;   47.400;   59.000;  -16.000
244.243;    0.400;  -47.000;  101.000
244.386; -181.500; -761.000; -630.000
244.529;   -1.800; -132.000; -139.000
244.672; -302.100;-1154.000; -951.000
244.814; -200.000; -621.000; -794.000
244.957;  -55.800; -380.000; -304.000
245.100; -120.600; -489.000; -489.000
245.242; -104.200; -387.000; -374.000
245.385;   23.100;  -59.000;  -39.000
245.528; -218.500; -871.000; -705.000
245.670;  234.800;  612.000;  634.000
245.813; -124.700; -599.000; -547.000
245.956;  -37.100; -324.000; -275.000
246.098; -137.100; -508.000; -650.000
246.241;   47.800;  194.000;   48.000
246.383;  -15.100; -119.000;  -73.000
246.526; -137.800; -454.000; -525.000
246.669; -229.400; -889.000; -780.000
246.811;   73.200;  172.000;   -1.000
246.954; -118.200; -512.000; -426.000
247.096;  -18.800;  -84.000;   -6.000
247.239; -121.800; -482.000; -445.000
247.381; -103.900; -647.000; -488.000
247.524;  219.300;  645.000;  679.000
247.666;   -5.900;   58.000;   11.000
247.809; -213.700; -887.000; -691.000
247.951;   -2.800;  -75.000;  138.000
248.094;   84.800;  432.000;  308.000
248.236; -286.600;-1262.000;-1238.000
248.378;   36.200; -356.000;  -81.000
248.521;   -5.400; -334.000; -337.000
248.663;  -35.900; -236.000; -267.000
248.806;   -9.700; -300.000; -266.000
248.948; -165.800; -886.000; -763.000
249.090;  -83.100; -428.000; -398.000
249.233;  -83.700; -344.000; -381.000
249.375; -121.400; -474.000; -451.000
249.518;   -3.600;  -83.000; -133.000
249.660;   45.600; -103.000;    3.000
249.802; -356.600;-1303.000;-1189.000
249.945; -116.800; -612.000; -540.000
250.087; -210.200; -834.000; -768.000
250.229; -113.100; -362.000; -480.000
250.371; -108.200; -494.000; -439.000
250.514;  -87.200; -310.000; -244.000
250.656; -119.300;   69.000;  102.000
250.798; -216.200; -849.000; -800.000
250.940;  -99.200; -322.000; -322.000
251.083;  -33.200; -335.000; -111.000
251.225;  181.100;  338.000;  310.000
251.367;  -67.200; -274.000; -373.000
251.509;  -27.600; -265.000; -210.000
251.651; -175.300; -731.000; -671.000
251.794;  126.300;  538.000;  632.000
251.936; -177.000; -821.000; -747.000
252.078; -146.800; -540.000; -461.000
252.220; -100.500; -645.000; -477.000
252.362;  190.200;  344.000;  462.000
252.504;  -98.500; -677.000; -584.000
252.646; -185.900; -875.000; -722.000
252.788;   23.600;   14.000; -128.000
252.931;   -8.800; -257.000; -253.000
253.073;  -60.500; -376.000; -317.000
253.215;   48.200;  141.000;  122.000
253.357;   37.400;   82.000; -153.000
253.499;  -73.000; -374.000; -234.000
253.641; -143.300; -749.000; -594.000
253.783; -170.400; -609.000; -527.000
253.925; -131.900; -586.000; -591.000
254.067; -212.000; -744.000; -667.000
254.209;  -25.600; -391.000; -259.000
254.351; -220.700; -865.000; -883.000
254.493; -109.500; -441.000; -417.000
254.635; -222.200; -936.000; -818.000
254.777; -187.700; -752.000; -687.000
254.918; -155.700; -512.000; -430.000
255.060;  -83.300; -551.000; -395.000
255.202;  -99.900; -473.000; -261.000
255.344; -134.900; -658.000; -455.000
255.486; -102.000; -471.000; -406.000
255.628; -198.200; -780.000; -781.000
255.770; -135.000; -676.000; -536.000
255.912; -116.900; -559.000; -468.000
256.053; -162.100; -730.000; -508.000
256.195;  380.100; 1008.000;  903.000
256.337; -163.400; -861.000; -595.000
256.479;  183.700;  532.000;  416.000
256.621;  -65.300; -394.000; -212.000
256.762; -192.000; -789.000; -742.000
256.904;  138.000;  485.000;  487.000
257.046;  -43.200; -381.000; -271.000
257.188;  -42.700; -351.000; -264.000
257.329; -128.100; -525.000; -464.000
257.471; -207.800; -939.000; -807.000
257.613;  -95.000; -584.000; -498.000
257.755; -276.800;-1073.000; -982.000
257.896;  123.300;  286.000;  392.000
258.038;  -70.000; -403.000; -352.000
258.180;  -47.200; -354.000; -279.000
258.321; -128.000; -581.000; -457.000
258.463;   32.500;  -71.000;  133.000
258.605; -147.100; -562.000; -570.000
258.746; -225.400; -886.000; -772.000
258.888; -299.500;-1026.000;-1020.000
259.029;   72.600;  121.000;   -8.000
259.171; -144.500; -614.000; -550.000
259.313;   37.200;  -49.000;  -47.000
259.454; -104.100; -536.000; -414.000
259.596;  -93.900; -483.000; -390.000
259.737; -127.200; -590.000; -474.000
259.879;  115.900;  217.000;  311.000
260.020;  234.300;  901.000;  636.000
260.162;    2.600; -146.000; -253.000
260.303; -200.500; -768.000; -687.000
260.445; -141.400; -609.000; -613.000
260.586;   99.400;  392.000;  157.000
260.728;  -40.800; -360.000; -248.000
260.869; -113.300; -350.000; -343.000
261.011;  245.400;  706.000;  537.000
261.152; -104.000; -479.000; -319.000
261.293; -108.500; -576.000; -595.000
261.435;  -19.700; -219.000; -184.000
261.576; -103.400; -455.000; -325.000
261.718;  118.500;  420.000;  470.000
261.859; -224.100; -940.000; -949.000
262.000; -262.200; -951.000;-1016.000
262.142;    6.600;  -52.000;  -60.000
262.283; -209.300; -808.000; -691.000
262.424; -133.800; -666.000; -625.000
262.566; -287.900;-1161.000; -983.000
262.707; -204.700; -840.000; -830.000
262.848; -224.600; -769.000; -726.000
262.990;  -47.300; -362.000; -345.000
263.131;  197.600;  650.000;  681.000
263.272;    9.300;  -61.000;  -41.000
263.413; -186.600; -589.000; -561.000
263.555; -123.600; -669.000; -143.000
263.696; -126.600; -550.000; -641.000
263.837;  -76.000; -449.000; -551.000
263.978;   17.900;   -5.000;  -77.000
264.119;  -54.900; -283.000; -264.000
264.261; -230.000; -847.000; -630.000
264.402;   76.100;   33.000;   40.000
264.543; -126.500; -509.000; -524.000
264.684;   -0.300;   61.000;  -50.000
264.825; -130.200; -816.000; -538.000
264.966;   27.500;  -84.000;  -67.000
265.107; -214.400; -646.000; -670.000
265.248; -219.400; -825.000; -812.000
265.390;   31.600;  152.000;   -9.000
265.531;  -15.700; -238.000; -107.000
265.672; -157.300; -557.000; -630.000
265.813;  159.700;  563.000;  439.000
265.954; -255.200; -959.000; -940.000
266.095;   -5.700; -372.000; -322.000
266.236; -171.500; -686.000; -548.000
266.377;  -24.600; -243.000; -297.000
266.518; -109.700; -619.000; -547.000
266.659;  100.500;  170.000;  268.000
266.800;   83.300;   83.000;   85.000
266.941; -106.700; -487.000; -478.000
267.082;   98.700;  354.000;   99.000
267.223;  -92.400; -344.000; -273.000
267.364; -219.000; -892.000; -686.000
267.504;    3.100;    3.000;  135.000
267.645;   30.200;  160.000;   67.000
267.786;  -46.600; -147.000;  -86.000
267.927; -116.300; -473.000; -379.000
268.068;    2.900; -186.000;  -61.000
268.209;  -81.700; -175.000; -413.000
268.350;  -45.900; -388.000; -532.000
268.490; -154.900; -648.000; -521.000
268.631;   74.400;  127.000;  225.000
268.772; -193.500; -874.000; -647.000
268.913;  -62.000; -328.000; -476.000
269.054;   27.300; -117.000;   12.000
269.194;  -72.500; -418.000; -402.000
269.335; -278.400;-1137.000;-1074.000
269.476;   -5.500;   33.000;  -35.000
269.617;  -38.600; -347.000; -392.000
269.757; -161.300; -713.000; -646.000
269.898; -188.700; -856.000; -613.000
270.039;  -91.100; -415.000; -405.000
270.180; -248.000; -952.000; -816.000
270.320;  -16.600; -190.000; -250.000
