
Integration time [ms]: 200.000
Averaging Nr. [scans]: 10
Smoothing Nr. [pixels]: 0
Data measured with spectrometer [name]: 2101012U2
Wave   ;Sample   ;Dark     ;Reference
[nm]   ;[counts] ;[counts] ;[counts] 

197.733;  132.200;  516.000;  404.000
197.879; -168.000; -610.000; -634.000
198.025; -115.200; -475.000; -420.000
198.171; -164.100; -602.000; -612.000
198.317;  -32.100; -401.000; -316.000
198.463; -110.900; -655.000; -404.000
198.609;   61.600;  181.000; -137.000
198.755; -171.300; -644.000; -410.000
198.901; -142.500; -505.000; -424.000
199.047; -126.800; -615.000; -488.000
199.193;  -79.600; -230.000; -468.000
199.339;  -90.800; -222.000; -369.000
199.485;  105.200;  330.000;  271.000
199.631;   42.200;  227.000;  310.000
199.777;  -77.800; -466.000; -398.000
199.923; -116.600; -610.000; -424.000
200.069;  -14.400; -141.000;  -58.000
200.215;  111.500;  128.000;  453.000
200.361;  111.100;  243.000;  477.000
200.507; -154.100; -600.000; -373.000
200.653;  -67.800; -371.000; -194.000
200.798; -101.500; -215.000; -125.000
200.944;  -18.900; -146.000;  -41.000
201.090;   83.700;   61.000;  222.000
201.236;   11.900; -116.000; -158.000
201.382;  250.000;  874.000;  903.000
201.528;   40.800;  -58.000;  -48.000
201.674; -119.400; -386.000; -293.000
201.819; -120.600; -540.000; -439.000
201.965; -172.900; -699.000; -447.000
202.111;  -24.100; -273.000; -226.000
202.257;  -64.900; -250.000; -238.000
202.402;   34.200;   13.000;  -36.000
202.548;  -45.400; -169.000; -116.000
202.694;  159.500;  410.000; -183.000
202.840; -166.700; -603.000; -531.000
202.985; -137.300; -681.000; -639.000
203.131; -232.900; -832.000; -666.000
203.277;  -40.900; -199.000; -262.000
203.423;  -87.800; -434.000; -520.000
203.568;  -78.200; -462.000; -237.000
203.714; -106.800; -535.000; -542.000
203.860; -134.200; -682.000; -641.000
204.005;   50.700;  112.000;  167.000
204.151;  188.500;  561.000;  556.000
204.296; -101.600; -354.000; -221.000
204.442; -139.500; -600.000; -547.000
204.588; -163.400; -592.000; -579.000
204.733;   35.600;  178.000;  168.000
204.879; -285.800;-1018.000; -822.000
205.025;   52.100;  -99.000;  126.000
205.170;   -3.400;  -17.000;   94.000
205.316;  169.600;  438.000;  661.000
205.461; -153.200; -698.000; -554.000
205.607;  179.800;  609.000;  665.000
205.752; -155.800; -626.000; -551.000
205.898;  -69.700; -501.000; -391.000
206.043; -120.600; -578.000; -506.000
206.189;  -80.200; -243.000; -285.000
206.334;  157.700;  554.000;  606.000
206.480;  172.100;  409.000;  239.000
206.625; -168.400; -529.000; -552.000
206.771;  -52.400; -451.000; -373.000
206.916;  -72.000; -210.000; -537.000
207.062; -115.700; -545.000; -591.000
207.207; -120.000; -546.000; -443.000
207.353;  129.600;  185.000;  460.000
207.498;   26.300;  196.000;   85.000
207.643;  -71.300; -501.000; -370.000
207.789; -270.800;-1069.000; -910.000
207.934; -181.300; -665.000; -713.000
208.080;  -15.200; -154.000;   66.000
208.225;   26.200;  -22.000;  -57.000
208.370; -171.900; -727.000; -619.000
208.516; -158.300; -741.000; -487.000
208.661;  -23.600; -127.000;  -69.000
208.806;  -46.300; -165.000; -171.000
208.952; -234.100;-1044.000; -731.000
209.097;  195.400;  378.000;  349.000
209.242;  -91.700; -307.000; -382.000
209.387;   68.700;  392.000;  350.000
209.533; -111.500; -321.000; -350.000
209.678;  160.800;  472.000;  543.000
209.823; -105.700; -408.000; -310.000
209.969; -195.600; -860.000; -757.000
210.114; -243.800; -907.000; -719.000
210.259; -203.600; -939.000; -889.000
210.404;  -11.700; -171.000;  103.000
210.549;   47.300;  108.000;    3.000
210.695;  -65.900;   -3.000;  -95.000
210.840;   89.600;   94.000;   67.000
210.985; -148.500; -484.000; -303.000
211.130;  147.100;  268.000;  406.000
211.275;   26.400;  207.000;  199.000
211.420;  -82.300; -300.000; -289.000
211.566; -141.700; -536.000; -489.000
211.711;   44.200;  218.000;  157.000
211.856; -143.700; -545.000; -519.000
212.001;   24.500;  151.000;   44.000
212.146;   18.500;  153.000;   49.000
212.291;  -55.900; -210.000; -186.000
212.436;  -66.500; -280.000;   -6.000
212.581; -158.900; -685.000; -653.000
212.726; -148.800; -487.000; -538.000
212.871;  -81.200; -552.000; -217.000
213.016; -312.500;-1172.000;-1029.000
213.161;  116.000;  406.000;  291.000
213.306; -132.900; -435.000; -577.000
213.451; -165.000; -778.000; -689.000
213.596;  -75.400; -455.000; -347.000
213.741; -108.200; -448.000; -538.000
213.886; -198.000; -498.000; -517.000
214.031;  -36.000; -294.000; -124.000
214.176; -107.100; -408.000; -341.000
214.321;  -18.500; -296.000; -157.000
214.466;  -54.900; -163.000;  -43.000
214.611;  -12.300;  -61.000;  -10.000
214.756; -225.500; -948.000; -858.000
214.901;  -24.900; -388.000; -226.000
215.046; -225.100; -797.000; -825.000
215.191;   30.900;  128.000;   35.000
215.336;   -9.400; -157.000;  -19.000
215.480; -113.900; -684.000; -505.000
215.625;    3.100; -175.000;  -19.000
215.770; -155.300; -757.000; -662.000
215.915;  -34.600;   -5.000;  -97.000
216.060;  -31.800; -113.000;  -21.000
216.205; -235.100; -731.000; -779.000
216.349; -132.700; -470.000; -533.000
216.494; -258.800; -939.000; -867.000
216.639; -239.400; -823.000; -888.000
216.784; -164.300; -577.000; -525.000
216.929;  110.800;  392.000;  281.000
217.073;  -13.700; -244.000;  -31.000
217.218;   30.500;   78.000;  -47.000
217.363; -169.200; -656.000; -618.000
217.507; -177.000; -623.000; -588.000
217.652; -257.800; -845.000; -874.000
217.797; -166.300; -708.000; -659.000
217.942; -235.500; -856.000; -720.000
218.086;  177.500;  608.000;  539.000
218.231;  -20.100; -174.000;  -26.000
218.376;  -53.300; -337.000; -229.000
218.520;   28.000;  -41.000;   96.000
218.665;  -94.700; -338.000; -204.000
218.810;  -88.500; -275.000; -233.000
218.954;   39.800;  201.000;   35.000
219.099; -226.600; -713.000; -963.000
219.243; -123.000; -589.000; -554.000
219.388;  -74.700; -264.000; -136.000
219.532;  -26.600; -116.000; -116.000
219.677; -118.100; -564.000; -521.000
219.822;   17.600;   33.000;   89.000
219.966;    8.500;   17.000;  -99.000
220.111;  -47.900; -328.000;  -40.000
220.255; -186.400; -797.000; -750.000
220.400;  -27.300; -180.000; -146.000
220.544; -135.500; -516.000; -450.000
220.689;  -93.000; -422.000; -451.000
220.833;  -49.600; -123.000;  -58.000
220.978;  -92.600; -393.000; -563.000
221.122;   64.000;  319.000;  307.000
221.267; -235.600; -906.000; -837.000
221.411; -138.700; -478.000; -394.000
221.555;   10.100; -104.000;  -23.000
221.700;  -87.000; -329.000; -222.000
221.844;   99.100;  255.000;  272.000
221.989; -109.100; -328.000; -311.000
222.133;  -61.700; -289.000; -307.000
222.277;  -20.200;    5.000;   78.000
222.422;   62.800;  227.000;  113.000
222.566;  -64.000; -381.000; -214.000
222.711; -111.100; -414.000; -479.000
222.855; -190.600; -643.000; -586.000
222.999; -163.200; -642.000; -717.000
223.144;  -41.600; -195.000; -194.000
223.288;  120.500;  423.000;  251.000
223.432;   19.500;  184.000;  230.000
223.576;   32.500;  152.000;  -21.000
223.721;   87.700;  364.000;  273.000
223.865;  -80.700; -472.000; -475.000
224.009;  396.600; 1673.000; 1631.000
224.153; -154.200; -660.000; -671.000
224.298; -131.900; -531.000; -489.000
224.442;  -24.300;  -74.000;  -33.000
224.586;  -12.000; -169.000; -106.000
224.730; -188.000; -858.000; -670.000
224.875; -223.100; -739.000; -688.000
225.019;   38.900;  102.000;  188.000
225.163;   80.700;  208.000;  341.000
225.307;   77.400;   97.000;  -91.000
225.451;  104.000;  360.000;  481.000
225.595;   89.200;  264.000;  176.000
225.739;  -36.400; -170.000;  -94.000
225.884;   19.200;   86.000;    5.000
226.028; -196.100; -760.000; -626.000
226.172;  -56.300; -260.000; -273.000
226.316; -268.200; -941.000; -902.000
226.460;  -99.800; -645.000; -493.000
226.604; -117.200; -406.000; -400.000
226.748; -198.600; -836.000; -733.000
226.892;  -50.300; -227.000; -181.000
227.036;  -89.300; -537.000; -447.000
227.180; -123.800; -551.000; -375.000
227.324; -129.200; -561.000; -580.000
227.468; -248.900; -819.000; -717.000
227.612;   47.600;  242.000;  -28.000
227.756; -227.300; -845.000; -698.000
227.900;  143.600;  342.000;  441.000
228.044; -129.900; -509.000; -290.000
228.188;  155.800;  448.000;  568.000
228.332; -135.600; -546.000; -472.000
228.476;  -35.200; -223.000; -149.000
228.620;  -51.400; -210.000; -150.000
228.764;  130.400;  431.000;  349.000
228.908;  -28.700; -155.000;   30.000
229.052; -135.100; -615.000; -528.000
229.195;  -30.800; -172.000;   13.000
229.339;  -46.200; -235.000; -305.000
229.483;  -69.100;    5.000; -162.000
229.627;    0.200; -156.000;  139.000
229.771;  -68.200; -218.000; -294.000
229.915;   55.300;  230.000;   79.000
230.059; -199.000; -648.000; -663.000
230.202;  -64.400; -370.000; -317.000
230.346;  -54.100; -107.000;  107.000
230.490; -103.000; -489.000; -521.000
230.634; -237.100; -736.000; -553.000
230.777;  181.900;  478.000;  509.000
230.921;  -89.200; -450.000; -359.000
231.065;  -58.800; -246.000; -286.000
231.209;   56.800;  261.000;  265.000
231.352;   46.600;   54.000;   40.000
231.496;   40.300;  568.000;  188.000
231.640; -135.200; -693.000; -621.000
231.783;  126.700;  546.000;  525.000
231.927;  -53.500; -294.000; -365.000
232.071; -260.600; -962.000; -736.000
232.214; -191.800; -980.000; -764.000
232.358; -195.300; -683.000; -599.000
232.502;   22.600;  -19.000;    7.000
232.645; -274.700;-1090.000; -927.000
232.789;  -13.900; -257.000; -218.000
232.933; -107.500; -407.000; -224.000
233.076; -231.300;-1038.000; -897.000
233.220; -207.900; -752.000; -777.000
233.363; -127.300; -669.000; -477.000
233.507;  107.300;  371.000;  129.000
233.650; -170.900; -764.000; -834.000
233.794;  103.200;  438.000;  461.000
233.938; -114.300; -530.000; -362.000
234.081;  -54.100;  -93.000;   31.000
234.225; -130.600; -631.000; -539.000
234.368; -229.800; -773.000; -723.000
234.512;  -78.500; -385.000; -299.000
234.655; -187.800; -582.000; -555.000
234.798; -136.100; -493.000; -466.000
234.942; -266.400; -884.000;-1002.000
235.085; -137.900; -651.000; -443.000
235.229; -142.300; -405.000; -410.000
235.372;  -60.800; -247.000; -191.000
235.516; -114.500; -397.000; -321.000
235.659;   68.300;   92.000;  121.000
235.802;  -10.200;  -38.000;  -22.000
235.946;   57.900;  335.000;  215.000
236.089;   73.400;  126.000;  250.000
236.233;  102.700;  275.000;  298.000
236.376; -109.700; -235.000; -378.000
236.519;  -56.700; -297.000; -319.000
236.663;  -28.700; -215.000; -117.000
236.806; -246.500;-1029.000; -999.000
236.949;  138.200;  543.000;  431.000
237.092;  130.100;  412.000;  391.000
237.236; -195.500; -589.000; -502.000
237.379;  145.900;  352.000;  428.000
237.522; -247.200; -879.000; -768.000
237.666;  -26.700; -271.000;   18.000
237.809; -243.700; -851.000; -823.000
237.952;   75.000;  469.000;  271.000
238.095; -144.200; -447.000; -442.000
238.238;  196.200;  688.000;  700.000
238.382;   18.900;  166.000;  103.000
238.525; -124.900; -598.000; -511.000
238.668; -266.500;-1060.000; -985.000
238.811; -163.500; -638.000; -643.000
238.954; -103.700; -483.000; -334.000
239.097;  236.700;  617.000;  664.000
239.241;   92.200;  394.000;  326.000
239.384;  -50.200; -254.000; -214.000
239.527;  -79.500; -424.000; -224.000
239.670; -290.000; -994.000;-1091.000
239.813; -207.900; -696.000; -658.000
239.956;  168.500;  579.000;  473.000
240.099; -217.600; -778.000; -725.000
240.242;  148.100;  428.000;  432.000
240.385;  150.300;  466.000;  450.000
240.528; -134.400; -706.000; -473.000
240.671;   29.200;  189.000;  134.000
240.814;  -52.900; -441.000; -158.000
240.957; -208.900; -767.000; -578.000
241.100; -159.700; -779.000; -755.000
241.243; -272.000;-1234.000; -893.000
241.386; -127.200; -508.000; -379.000
241.529; -155.800; -735.000; -547.000
241.672; -127.800; -566.000; -495.000
241.815; -252.800; -832.000; -808.000
241.958;  -11.500; -125.000; -182.000
242.101; -160.700; -545.000; -390.000
242.244;  -50.500; -270.000; -325.000
242.387;  -83.600; -304.000; -246.000
242.530;  146.000;  470.000;  134.000
242.673;  -68.700; -381.000; -309.000
242.815; -249.500; -925.000; -899.000
242.958; -113.400; -482.000; -381.000
243.101;   42.700;  132.000;  187.000
243.244; -139.900; -564.000; -521.000
243.387;  -66.100; -313.000; -316.000
243.530; -202.700; -657.000; -674.000
243.672;  -14.500;   43.000;  -92.000
243.815;  -91.200; -355.000; -283.000
243.958;   26.700;   98.000;  -26.000
244.101;   11.200;   59.000;  -16.000
244.243;  -20.600;  -47.000;  101.000
244.386; -225.400; -761.000; -630.000
244.529;  -22.600; -132.000; -139.000
244.672; -310.200;-1154.000; -951.000
244.814; -182.900; -621.000; -794.000
244.957; -100.300; -380.000; -304.000
245.100; -147.800; -489.000; -489.000
245.242; -173.600; -387.000; -374.000
245.385;   18.000;  -59.000;  -39.000
245.528; -247.000; -871.000; -705.000
245.670;  187.200;  612.000;  634.000
245.813; -146.500; -599.000; -547.000
245.956;  -42.800; -324.000; -275.000
246.098; -162.300; -508.000; -650.000
246.241;    2.900;  194.000;   48.000
246.383;  -19.900; -119.000;  -73.000
246.526; -161.200; -454.000; -525.000
246.669; -249.900; -889.000; -780.000
246.811;   55.900;  172.000;   -1.000
246.954; -148.200; -512.000; -426.000
247.096;   11.100;  -84.000;   -6.000
247.239; -160.800; -482.000; -445.000
247.381; -151.100; -647.000; -488.000
247.524;  198.200;  645.000;  679.000
247.666;   27.300;   58.000;   11.000
247.809; -221.100; -887.000; -691.000
247.951;    1.400;  -75.000;  138.000
248.094;   53.800;  432.000;  308.000
248.236; -318.100;-1262.000;-1238.000
248.378;  -43.000; -356.000;  -81.000
248.521;  -36.400; -334.000; -337.000
248.663;  -79.700; -236.000; -267.000
248.806;  -57.100; -300.000; -266.000
248.948; -239.000; -886.000; -763.000
249.090;  -75.300; -428.000; -398.000
249.233;  -94.400; -344.000; -381.000
249.375; -146.700; -474.000; -451.000
249.518;  -32.600;  -83.000; -133.000
249.660;    4.600; -103.000;    3.000
249.802; -355.700;-1303.000;-1189.000
249.945; -150.100; -612.000; -540.000
250.087; -218.100; -834.000; -768.000
250.229;  -87.500; -362.000; -480.000
250.371; -168.400; -494.000; -439.000
250.514;  -64.000; -310.000; -244.000
250.656; -101.800;   69.000;  102.000
250.798; -200.400; -849.000; -800.000
250.940; -137.100; -322.000; -322.000
251.083;  -48.100; -335.000; -111.000
251.225;  122.800;  338.000;  310.000
251.367;  -86.500; -274.000; -373.000
251.509;  -63.300; -265.000; -210.000
251.651; -179.500; -731.000; -671.000
251.794;  140.300;  538.000;  632.000
251.936; -190.400; -821.000; -747.000
252.078; -181.700; -540.000; -461.000
252.220; -152.900; -645.000; -477.000
252.362;  147.000;  344.000;  462.000
252.504; -136.800; -677.000; -584.000
252.646; -221.200; -875.000; -722.000
252.788;    4.300;   14.000; -128.000
252.931;  -96.900; -257.000; -253.000
253.073;  -83.000; -376.000; -317.000
253.215;  -13.600;  141.000;  122.000
253.357;  -34.100;   82.000; -153.000
253.499; -100.000; -374.000; -234.000
253.641; -151.600; -749.000; -594.000
253.783; -186.200; -609.000; -527.000
253.925; -172.300; -586.000; -591.000
254.067; -181.600; -744.000; -667.000
254.209;  -49.800; -391.000; -259.000
254.351; -262.100; -865.000; -883.000
254.493; -100.300; -441.000; -417.000
254.635; -201.700; -936.000; -818.000
254.777; -168.000; -752.000; -687.000
254.918; -156.900; -512.000; -430.000
255.060; -116.000; -551.000; -395.000
255.202;  -85.100; -473.000; -261.000
255.344; -119.900; -658.000; -455.000
255.486; -153.900; -471.000; -406.000
255.628; -190.600; -780.000; -781.000
255.770; -160.400; -676.000; -536.000
255.912; -112.000; -559.000; -468.000
256.053; -171.400; -730.000; -508.000
256.195;  355.700; 1008.000;  903.000
256.337; -177.200; -861.000; -595.000
256.479;  168.100;  532.000;  416.000
256.621;  -98.300; -394.000; -212.000
256.762; -179.300; -789.000; -742.000
256.904;  133.800;  485.000;  487.000
257.046;  -51.600; -381.000; -271.000
257.188;  -68.900; -351.000; -264.000
257.329; -139.300; -525.000; -464.000
257.471; -240.500; -939.000; -807.000
257.613; -144.000; -584.000; -498.000
257.755; -292.200;-1073.000; -982.000
257.896;   88.200;  286.000;  392.000
258.038; -114.100; -403.000; -352.000
258.180;  -56.600; -354.000; -279.000
258.321; -157.000; -581.000; -457.000
258.463;    9.300;  -71.000;  133.000
258.605; -172.200; -562.000; -570.000
258.746; -200.800; -886.000; -772.000
258.888; -309.400;-1026.000;-1020.000
259.029;   52.600;  121.000;   -8.000
259.171; -181.500; -614.000; -550.000
259.313;    1.600;  -49.000;  -47.000
259.454; -131.900; -536.000; -414.000
259.596;  -78.200; -483.000; -390.000
259.737; -123.900; -590.000; -474.000
259.879;   73.000;  217.000;  311.000
260.020;  192.200;  901.000;  636.000
260.162;  -26.600; -146.000; -253.000
260.303; -178.700; -768.000; -687.000
260.445; -136.800; -609.000; -613.000
260.586;   54.200;  392.000;  157.000
260.728;  -73.200; -360.000; -248.000
260.869; -132.800; -350.000; -343.000
261.011;  185.400;  706.000;  537.000
261.152; -113.400; -479.000; -319.000
261.293; -115.900; -576.000; -595.000
261.435;  -54.900; -219.000; -184.000
261.576;  -77.100; -455.000; -325.000
261.718;  113.100;  420.000;  470.000
261.859; -237.900; -940.000; -949.000
262.000; -235.200; -951.000;-1016.000
262.142;  -21.700;  -52.000;  -60.000
262.283; -192.200; -808.000; -691.000
262.424; -180.300; -666.000; -625.000
262.566; -296.400;-1161.000; -983.000
262.707; -240.800; -840.000; -830.000
262.848; -243.600; -769.000; -726.000
262.990;  -80.000; -362.000; -345.000
263.131;  166.900;  650.000;  681.000
263.272;    7.000;  -61.000;  -41.000
263.413; -178.400; -589.000; -561.000
263.555; -119.500; -669.000; -143.000
263.696; -170.500; -550.000; -641.000
263.837; -117.600; -449.000; -551.000
263.978;   11.900;   -5.000;  -77.000
264.119;  -79.900; -283.000; -264.000
264.261; -214.300; -847.000; -630.000
264.402;    3.400;   33.000;   40.000
264.543; -144.600; -509.000; -524.000
264.684;   -6.400;   61.000;  -50.000
264.825; -120.100; -816.000; -538.000
264.966;   35.500;  -84.000;  -67.000
265.107; -223.400; -646.000; -670.000
265.248; -215.300; -825.000; -812.000
265.390;   13.600;  152.000;   -9.000
265.531;   -9.400; -238.000; -107.000
265.672; -188.000; -557.000; -630.000
265.813;  125.300;  563.000;  439.000
265.954; -305.800; -959.000; -940.000
266.095;   -9.300; -372.000; -322.000
266.236; -195.600; -686.000; -548.000
266.377;  -72.100; -243.000; -297.000
266.518; -121.900; -619.000; -547.000
266.659;   85.900;  170.000;  268.000
266.800;   54.200;   83.000;   85.000
266.941; -119.900; -487.000; -478.000
267.082;   68.700;  354.000;   99.000
267.223;  -81.300; -344.000; -273.000
267.364; -213.600; -892.000; -686.000
267.504;    4.200;    3.000;  135.000
267.645;   19.600;  160.000;   67.000
267.786;  -19.200; -147.000;  -86.000
267.927; -110.600; -473.000; -379.000
268.068;    8.600; -186.000;  -61.000
268.209; -102.100; -175.000; -413.000
268.350;  -79.700; -388.000; -532.000
268.490; -171.400; -648.000; -521.000
268.631;  104.900;  127.000;  225.000
268.772; -179.400; -874.000; -647.000
268.913;  -88.600; -328.000; -476.000
269.054;  -33.900; -117.000;   12.000
269.194;  -60.200; -418.000; -402.000
269.335; -299.400;-1137.000;-1074.000
269.476;   11.000;   33.000;  -35.000
269.617; -101.700; -347.000; -392.000
269.757; -167.400; -713.000; -646.000
269.898; -227.400; -856.000; -613.000
270.039;  -77.100; -415.000; -405.000
270.180; -260.300; -952.000; -816.000
270.320;  -11.800; -190.000; -250.000
