
Integration time [ms]: 100.000
Averaging Nr. [scans]: 40
Smoothing Nr. [pixels]: 0
Data measured with spectrometer [name]: 2101012U2
Wave   ;Sample   ;Dark     ;Reference
[nm]   ;[counts] ;[counts] ;[counts] 

197.733;   56.950;  516.000;  404.000
197.879;  -79.975; -610.000; -634.000
198.025;  -51.200; -475.000; -420.000
198.171;  -69.750; -602.000; -612.000
198.317;  -29.650; -401.000; -316.000
198.463;  -53.050; -655.000; -404.000
198.609;   31.775;  181.000; -137.000
198.755;  -82.150; -644.000; -410.000
198.901;  -56.925; -505.000; -424.000
199.047;  -68.625; -615.000; -488.000
199.193;  -38.900; -230.000; -468.000
199.339;  -45.075; -222.000; -369.000
199.485;   31.575;  330.000;  271.000
199.631;   13.475;  227.000;  310.000
199.777;  -41.600; -466.000; -398.000
199.923;  -61.850; -610.000; -424.000
200.069;  -10.400; -141.000;  -58.000
200.215;   46.325;  128.000;  453.000
200.361;   46.350;  243.000;  477.000
200.507;  -50.200; -600.000; -373.000
200.653;  -18.250; -371.000; -194.000
200.798;  -40.850; -215.000; -125.000
200.944;  -11.175; -146.000;  -41.000
201.090;   51.425;   61.000;  222.000
201.236;  -22.200; -116.000; -158.000
201.382;  117.075;  874.000;  903.000
201.528;   -1.850;  -58.000;  -48.000
201.674;  -56.875; -386.000; -293.000
201.819;  -53.500; -540.000; -439.000
201.965;  -74.025; -699.000; -447.000
202.111;  -25.000; -273.000; -226.000
202.257;  -47.425; -250.000; -238.000
202.402;    3.825;   13.000;  -36.000
202.548;  -19.025; -169.000; -116.000
202.694;   80.525;  410.000; -183.000
202.840;  -65.950; -603.000; -531.000
202.985;  -65.900; -681.000; -639.000
203.131; -105.400; -832.000; -666.000
203.277;  -23.600; -199.000; -262.000
203.423;  -53.600; -434.000; -520.000
203.568;  -36.725; -462.000; -237.000
203.714;  -66.125; -535.000; -542.000
203.860;  -70.700; -682.000; -641.000
204.005;   10.475;  112.000;  167.000
204.151;   68.750;  561.000;  556.000
204.296;  -47.350; -354.000; -221.000
204.442;  -68.725; -600.000; -547.000
204.588;  -70.025; -592.000; -579.000
204.733;   31.100;  178.000;  168.000
204.879; -126.650;-1018.000; -822.000
205.025;    5.500;  -99.000;  126.000
205.170;    2.800;  -17.000;   94.000
205.316;   85.900;  438.000;  661.000
205.461;  -88.300; -698.000; -554.000
205.607;   86.075;  609.000;  665.000
205.752;  -68.350; -626.000; -551.000
205.898;  -47.325; -501.000; -391.000
206.043;  -50.950; -578.000; -506.000
206.189;  -47.500; -243.000; -285.000
206.334;   74.750;  554.000;  606.000
206.480;   72.925;  409.000;  239.000
206.625;  -87.375; -529.000; -552.000
206.771;  -51.550; -451.000; -373.000
206.916;  -24.900; -210.000; -537.000
207.062;  -69.175; -545.000; -591.000
207.207;  -62.075; -546.000; -443.000
207.353;   54.900;  185.000;  460.000
207.498;    3.625;  196.000;   85.000
207.643;  -57.475; -501.000; -370.000
207.789; -128.550;-1069.000; -910.000
207.934;  -92.725; -665.000; -713.000
208.080;  -19.250; -154.000;   66.000
208.225;   -4.500;  -22.000;  -57.000
208.370;  -91.625; -727.000; -619.000
208.516;  -73.775; -741.000; -487.000
208.661;  -33.325; -127.000;  -69.000
208.806;  -21.950; -165.000; -171.000
208.952; -120.675;-1044.000; -731.000
209.097;   75.600;  378.000;  349.000
209.242;  -45.200; -307.000; -382.000
209.387;   51.875;  392.000;  350.000
209.533;  -44.850; -321.000; -350.000
209.678;   87.000;  472.000;  543.000
209.823;  -49.950; -408.000; -310.000
209.969;  -94.775; -860.000; -757.000
210.114; -101.050; -907.000; -719.000
210.259; -107.225; -939.000; -889.000
210.404;   -0.850; -171.000;  103.000
210.549;    8.075;  108.000;    3.000
210.695;  -22.975;   -3.000;  -95.000
210.840;   25.725;   94.000;   67.000
210.985;  -65.725; -484.000; -303.000
211.130;   67.675;  268.000;  406.000
211.275;   15.800;  207.000;  199.000
211.420;  -52.475; -300.000; -289.000
211.566;  -70.525; -536.000; -489.000
211.711;   25.650;  218.000;  157.000
211.856;  -66.650; -545.000; -519.000
212.001;   12.600;  151.000;   44.000
212.146;   18.225;  153.000;   49.000
212.291;  -12.200; -210.000; -186.000
212.436;  -18.825; -280.000;   -6.000
212.581;  -73.825; -685.000; -653.000
212.726;  -78.525; -487.000; -538.000
212.871;  -49.525; -552.000; -217.000
213.016; -147.900;-1172.000;-1029.000
213.161;   61.050;  406.000;  291.000
213.306;  -67.425; -435.000; -577.000
213.451; -102.200; -778.000; -689.000
213.596;  -45.550; -455.000; -347.000
213.741;  -40.500; -448.000; -538.000
213.886;  -82.325; -498.000; -517.000
214.031;  -21.750; -294.000; -124.000
214.176;  -54.125; -408.000; -341.000
214.321;  -27.375; -296.000; -157.000
214.466;  -24.100; -163.000;  -43.000
214.611;   -5.675;  -61.000;  -10.000
214.756; -124.425; -948.000; -858.000
214.901;  -34.325; -388.000; -226.000
215.046; -122.750; -797.000; -825.000
215.191;   22.850;  128.000;   35.000
215.336;  -15.750; -157.000;  -19.000
215.480;  -67.075; -684.000; -505.000
215.625;  -15.550; -175.000;  -19.000
215.770;  -92.075; -757.000; -662.000
215.915;   -2.300;   -5.000;  -97.000
216.060;   -6.675; -113.000;  -21.000
216.205;  -96.900; -731.000; -779.000
216.349;  -65.000; -470.000; -533.000
216.494; -140.775; -939.000; -867.000
216.639; -113.625; -823.000; -888.000
216.784;  -88.725; -577.000; -525.000
216.929;   36.550;  392.000;  281.000
217.073;  -24.550; -244.000;  -31.000
217.218;    0.975;   78.000;  -47.000
217.363;  -81.850; -656.000; -618.000
217.507;  -77.425; -623.000; -588.000
217.652; -118.075; -845.000; -874.000
217.797;  -84.825; -708.000; -659.000
217.942; -113.775; -856.000; -720.000
218.086;   64.650;  608.000;  539.000
218.231;  -19.950; -174.000;  -26.000
218.376;  -38.200; -337.000; -229.000
218.520;   -8.550;  -41.000;   96.000
218.665;  -24.050; -338.000; -204.000
218.810;  -41.525; -275.000; -233.000
218.954;   26.600;  201.000;   35.000
219.099; -108.350; -713.000; -963.000
219.243;  -56.400; -589.000; -554.000
219.388;  -37.750; -264.000; -136.000
219.532;   -2.475; -116.000; -116.000
219.677;  -79.775; -564.000; -521.000
219.822;   -1.450;   33.000;   89.000
219.966;   -0.600;   17.000;  -99.000
220.111;  -26.300; -328.000;  -40.000
220.255;  -93.650; -797.000; -750.000
220.400;  -10.475; -180.000; -146.000
220.544;  -75.925; -516.000; -450.000
220.689;  -55.300; -422.000; -451.000
220.833;  -16.675; -123.000;  -58.000
220.978;  -29.500; -393.000; -563.000
221.122;   21.375;  319.000;  307.000
221.267; -121.900; -906.000; -837.000
221.411;  -62.650; -478.000; -394.000
221.555;   -9.950; -104.000;  -23.000
221.700;  -56.875; -329.000; -222.000
221.844;   40.875;  255.000;  272.000
221.989;  -42.800; -328.000; -311.000
222.133;  -43.575; -289.000; -307.000
222.277;   -4.925;    5.000;   78.000
222.422;   17.750;  227.000;  113.000
222.566;  -40.425; -381.000; -214.000
222.711;  -57.300; -414.000; -479.000
222.855;  -67.650; -643.000; -586.000
222.999;  -88.425; -642.000; -717.000
223.144;  -27.050; -195.000; -194.000
223.288;   44.800;  423.000;  251.000
223.432;   37.725;  184.000;  230.000
223.576;   11.150;  152.000;  -21.000
223.721;   41.300;  364.000;  273.000
223.865;  -62.925; -472.000; -475.000
224.009;  237.175; 1673.000; 1631.000
224.153;  -77.400; -660.000; -671.000
224.298;  -70.650; -531.000; -489.000
224.442;  -19.300;  -74.000;  -33.000
224.586;  -21.425; -169.000; -106.000
224.730;  -95.100; -858.000; -670.000
224.875; -107.300; -739.000; -688.000
225.019;   26.850;  102.000;  188.000
225.163;   61.075;  208.000;  341.000
225.307;   15.075;   97.000;  -91.000
225.451;   38.775;  360.000;  481.000
225.595;   27.975;  264.000;  176.000
225.739;  -15.275; -170.000;  -94.000
225.884;   17.100;   86.000;    5.000
226.028;  -92.675; -760.000; -626.000
226.172;  -38.025; -260.000; -273.000
226.316; -102.275; -941.000; -902.000
226.460;  -59.625; -645.000; -493.000
226.604;  -56.675; -406.000; -400.000
226.748;  -95.375; -836.000; -733.000
226.892;  -34.825; -227.000; -181.000
227.036;  -46.825; -537.000; -447.000
227.180;  -60.700; -551.000; -375.000
227.324;  -48.575; -561.000; -580.000
227.468; -121.600; -819.000; -717.000
227.612;    5.300;  242.000;  -28.000
227.756;  -97.200; -845.000; -698.000
227.900;   55.775;  342.000;  441.000
228.044;  -51.375; -509.000; -290.000
228.188;   51.900;  448.000;  568.000
228.332;  -79.850; -546.000; -472.000
228.476;  -30.000; -223.000; -149.000
228.620;  -26.150; -210.000; -150.000
228.764;   60.025;  431.000;  349.000
228.908;  -17.125; -155.000;   30.000
229.052;  -58.900; -615.000; -528.000
229.195;  -15.625; -172.000;   13.000
229.339;  -14.875; -235.000; -305.000
229.483;  -20.100;    5.000; -162.000
229.627;   12.725; -156.000;  139.000
229.771;  -40.275; -218.000; -294.000
229.915;    0.975;  230.000;   79.000
230.059;  -91.375; -648.000; -663.000
230.202;  -41.025; -370.000; -317.000
230.346;  -22.550; -107.000;  107.000
230.490;  -61.875; -489.000; -521.000
230.634; -105.200; -736.000; -553.000
230.777;   82.175;  478.000;  509.000
230.921;  -49.050; -450.000; -359.000
231.065;  -41.400; -246.000; -286.000
231.209;   23.350;  261.000;  265.000
231.352;   12.525;   54.000;   40.000
231.496;    8.850;  568.000;  188.000
231.640;  -84.900; -693.000; -621.000
231.783;   53.925;  546.000;  525.000
231.927;  -41.600; -294.000; -365.000
232.071; -116.950; -962.000; -736.000
232.214; -102.075; -980.000; -764.000
232.358; -113.125; -683.000; -599.000
232.502;   11.625;  -19.000;    7.000
232.645; -131.825;-1090.000; -927.000
232.789;  -38.625; -257.000; -218.000
232.933;  -43.725; -407.000; -224.000
233.076; -123.750;-1038.000; -897.000
233.220; -116.125; -752.000; -777.000
233.363;  -71.975; -669.000; -477.000
233.507;   37.750;  371.000;  129.000
233.650; -105.675; -764.000; -834.000
233.794;   41.250;  438.000;  461.000
233.938;  -53.650; -530.000; -362.000
234.081;  -15.850;  -93.000;   31.000
234.225;  -65.875; -631.000; -539.000
234.368; -118.550; -773.000; -723.000
234.512;  -44.900; -385.000; -299.000
234.655;  -78.475; -582.000; -555.000
234.798;  -78.475; -493.000; -466.000
234.942; -127.225; -884.000;-1002.000
235.085;  -67.075; -651.000; -443.000
235.229;  -80.325; -405.000; -410.000
235.372;  -49.825; -247.000; -191.000
235.516;  -75.450; -397.000; -321.000
235.659;    6.100;   92.000;  121.000
235.802;   -9.975;  -38.000;  -22.000
235.946;   26.225;  335.000;  215.000
236.089;   23.375;  126.000;  250.000
236.233;   46.400;  275.000;  298.000
236.376;  -44.175; -235.000; -378.000
236.519;  -51.425; -297.000; -319.000
236.663;  -29.975; -215.000; -117.000
236.806; -125.525;-1029.000; -999.000
236.949;   50.950;  543.000;  431.000
237.092;   68.025;  412.000;  391.000
237.236;  -82.850; -589.000; -502.000
237.379;   56.150;  352.000;  428.000
237.522; -112.375; -879.000; -768.000
237.666;  -17.525; -271.000;   18.000
237.809; -129.975; -851.000; -823.000
237.952;   16.800;  469.000;  271.000
238.095;  -59.100; -447.000; -442.000
238.238;   78.375;  688.000;  700.000
238.382;    2.875;  166.000;  103.000
238.525;  -66.425; -598.000; -511.000
238.668; -140.750;-1060.000; -985.000
238.811;  -90.850; -638.000; -643.000
238.954;  -60.975; -483.000; -334.000
239.097;   89.500;  617.000;  664.000
239.241;   21.950;  394.000;  326.000
239.384;  -30.950; -254.000; -214.000
239.527;  -60.075; -424.000; -224.000
239.670; -142.975; -994.000;-1091.000
239.813;  -93.400; -696.000; -658.000
239.956;   68.475;  579.000;  473.000
240.099; -117.750; -778.000; -725.000
240.242;   50.125;  428.000;  432.000
240.385;   46.650;  466.000;  450.000
240.528;  -68.675; -706.000; -473.000
240.671;   13.725;  189.000;  134.000
240.814;  -45.600; -441.000; -158.000
240.957;  -95.650; -767.000; -578.000
241.100;  -86.650; -779.000; -755.000
241.243; -147.150;-1234.000; -893.000
241.386;  -66.825; -508.000; -379.000
241.529;  -87.550; -735.000; -547.000
241.672;  -60.100; -566.000; -495.000
241.815; -117.200; -832.000; -808.000
241.958;  -29.100; -125.000; -182.000
242.101;  -80.175; -545.000; -390.000
242.244;  -45.625; -270.000; -325.000
242.387;  -45.775; -304.000; -246.000
242.530;   60.250;  470.000;  134.000
242.673;  -35.100; -381.000; -309.000
242.815; -121.450; -925.000; -899.000
242.958;  -72.975; -482.000; -381.000
243.101;   12.525;  132.000;  187.000
243.244;  -84.300; -564.000; -521.000
243.387;  -49.900; -313.000; -316.000
243.530;  -97.600; -657.000; -674.000
243.672;   -5.850;   43.000;  -92.000
243.815;  -46.925; -355.000; -283.000
243.958;  -14.425;   98.000;  -26.000
244.101;  -16.200;   59.000;  -16.000
244.243;  -13.750;  -47.000;  101.000
244.386; -112.075; -761.000; -630.000
244.529;  -27.450; -132.000; -139.000
244.672; -149.475;-1154.000; -951.000
244.814;  -96.175; -621.000; -794.000
244.957;  -71.600; -380.000; -304.000
245.100;  -73.225; -489.000; -489.000
245.242;  -67.050; -387.000; -374.000
245.385;   -7.650;  -59.000;  -39.000
245.528; -107.000; -871.000; -705.000
245.670;   85.400;  612.000;  634.000
245.813;  -92.050; -599.000; -547.000
245.956;  -20.850; -324.000; -275.000
246.098;  -68.350; -508.000; -650.000
246.241;    9.200;  194.000;   48.000
246.383;  -15.875; -119.000;  -73.000
246.526;  -72.250; -454.000; -525.000
246.669; -106.100; -889.000; -780.000
246.811;   19.125;  172.000;   -1.000
246.954;  -62.050; -512.000; -426.000
247.096;  -21.200;  -84.000;   -6.000
247.239;  -73.975; -482.000; -445.000
247.381;  -69.700; -647.000; -488.000
247.524;   87.475;  645.000;  679.000
247.666;  -20.675;   58.000;   11.000
247.809; -112.950; -887.000; -691.000
247.951;   -8.375;  -75.000;  138.000
248.094;   17.275;  432.000;  308.000
248.236; -146.325;-1262.000;-1238.000
248.378;    8.000; -356.000;  -81.000
248.521;  -18.025; -334.000; -337.000
248.663;  -32.450; -236.000; -267.000
248.806;   -6.975; -300.000; -266.000
248.948;  -90.875; -886.000; -763.000
249.090;  -30.675; -428.000; -398.000
249.233;  -43.075; -344.000; -381.000
249.375;  -81.375; -474.000; -451.000
249.518;  -37.750;  -83.000; -133.000
249.660;   -2.825; -103.000;    3.000
249.802; -173.175;-1303.000;-1189.000
249.945;  -74.625; -612.000; -540.000
250.087; -112.225; -834.000; -768.000
250.229;  -46.775; -362.000; -480.000
250.371;  -63.325; -494.000; -439.000
250.514;  -56.475; -310.000; -244.000
250.656;  -10.950;   69.000;  102.000
250.798; -118.925; -849.000; -800.000
250.940;  -54.625; -322.000; -322.000
251.083;  -33.425; -335.000; -111.000
251.225;   48.425;  338.000;  310.000
251.367;  -42.400; -274.000; -373.000
251.509;  -35.850; -265.000; -210.000
251.651;  -89.075; -731.000; -671.000
251.794;   44.650;  538.000;  632.000
251.936; -118.050; -821.000; -747.000
252.078;  -75.275; -540.000; -461.000
252.220;  -67.800; -645.000; -477.000
252.362;   90.375;  344.000;  462.000
252.504;  -67.125; -677.000; -584.000
252.646; -117.350; -875.000; -722.000
252.788;    7.525;   14.000; -128.000
252.931;  -48.425; -257.000; -253.000
253.073;  -47.650; -376.000; -317.000
253.215;    2.725;  141.000;  122.000
253.357;  -22.675;   82.000; -153.000
253.499;  -53.225; -374.000; -234.000
253.641;  -96.525; -749.000; -594.000
253.783;  -88.950; -609.000; -527.000
253.925;  -88.325; -586.000; -591.000
254.067;  -96.925; -744.000; -667.000
254.209;  -19.200; -391.000; -259.000
254.351; -127.625; -865.000; -883.000
254.493;  -52.650; -441.000; -417.000
254.635; -125.300; -936.000; -818.000
254.777;  -85.175; -752.000; -687.000
254.918;  -60.425; -512.000; -430.000
255.060;  -66.325; -551.000; -395.000
255.202;  -58.225; -473.000; -261.000
255.344;  -86.975; -658.000; -455.000
255.486;  -68.250; -471.000; -406.000
255.628; -109.225; -780.000; -781.000
255.770; -111.975; -676.000; -536.000
255.912;  -61.325; -559.000; -468.000
256.053; -103.125; -730.000; -508.000
256.195;  156.725; 1008.000;  903.000
256.337; -110.775; -861.000; -595.000
256.479;   61.325;  532.000;  416.000
256.621;  -47.750; -394.000; -212.000
256.762;  -98.175; -789.000; -742.000
256.904;   58.250;  485.000;  487.000
257.046;  -66.475; -381.000; -271.000
257.188;  -40.625; -351.000; -264.000
257.329;  -68.125; -525.000; -464.000
257.471; -116.525; -939.000; -807.000
257.613;  -64.500; -584.000; -498.000
257.755; -159.475;-1073.000; -982.000
257.896;   25.425;  286.000;  392.000
258.038;  -77.300; -403.000; -352.000
258.180;  -33.600; -354.000; -279.000
258.321;  -79.525; -581.000; -457.000
258.463;    5.725;  -71.000;  133.000
258.605;  -89.250; -562.000; -570.000
258.746; -107.475; -886.000; -772.000
258.888; -147.575;-1026.000;-1020.000
259.029;   23.750;  121.000;   -8.000
259.171;  -88.725; -614.000; -550.000
259.313;   10.125;  -49.000;  -47.000
259.454;  -71.725; -536.000; -414.000
259.596;  -64.925; -483.000; -390.000
259.737;  -81.100; -590.000; -474.000
259.879;   31.475;  217.000;  311.000
260.020;   84.850;  901.000;  636.000
260.162;  -30.800; -146.000; -253.000
260.303; -111.375; -768.000; -687.000
260.445;  -72.150; -609.000; -613.000
260.586;   29.625;  392.000;  157.000
260.728;  -43.300; -360.000; -248.000
260.869; -113.175; -350.000; -343.000
261.011;   86.625;  706.000;  537.000
261.152;  -57.575; -479.000; -319.000
261.293;  -70.300; -576.000; -595.000
261.435;  -18.075; -219.000; -184.000
261.576;  -54.550; -455.000; -325.000
261.718;   37.775;  420.000;  470.000
261.859; -125.775; -940.000; -949.000
262.000; -118.525; -951.000;-1016.000
262.142;  -28.525;  -52.000;  -60.000
262.283; -108.075; -808.000; -691.000
262.424;  -85.825; -666.000; -625.000
262.566; -143.450;-1161.000; -983.000
262.707; -116.875; -840.000; -830.000
262.848; -118.700; -769.000; -726.000
262.990;  -40.075; -362.000; -345.000
263.131;   71.600;  650.000;  681.000
263.272;    2.475;  -61.000;  -41.000
263.413;  -96.025; -589.000; -561.000
263.555;  -73.075; -669.000; -143.000
263.696;  -82.700; -550.000; -641.000
263.837;  -77.600; -449.000; -551.000
263.978;   -5.250;   -5.000;  -77.000
264.119;  -45.275; -283.000; -264.000
264.261; -112.500; -847.000; -630.000
264.402;    5.300;   33.000;   40.000
264.543;  -73.075; -509.000; -524.000
264.684;   -3.650;   61.000;  -50.000
264.825;  -76.750; -816.000; -538.000
264.966;   -1.125;  -84.000;  -67.000
265.107; -113.050; -646.000; -670.000
265.248; -130.225; -825.000; -812.000
265.390;  -10.025;  152.000;   -9.000
265.531;  -31.025; -238.000; -107.000
265.672;  -84.150; -557.000; -630.000
265.813;   59.625;  563.000;  439.000
265.954; -131.550; -959.000; -940.000
266.095;  -11.950; -372.000; -322.000
266.236;  -82.800; -686.000; -548.000
266.377;  -41.350; -243.000; -297.000
266.518;  -86.775; -619.000; -547.000
266.659;   16.150;  170.000;  268.000
266.800;  -10.550;   83.000;   85.000
266.941;  -82.900; -487.000; -478.000
267.082;    7.600;  354.000;   99.000
267.223;  -43.900; -344.000; -273.000
267.364; -115.125; -892.000; -686.000
267.504;  -15.775;    3.000;  135.000
267.645;   -6.075;  160.000;   67.000
267.786;  -24.975; -147.000;  -86.000
267.927;  -57.975; -473.000; -379.000
268.068;  -19.125; -186.000;  -61.000
268.209;  -42.225; -175.000; -413.000
268.350;  -56.950; -388.000; -532.000
268.490;  -81.325; -648.000; -521.000
268.631;   30.500;  127.000;  225.000
268.772; -115.450; -874.000; -647.000
268.913;  -51.975; -328.000; -476.000
269.054;  -12.100; -117.000;   12.000
269.194;  -59.875; -418.000; -402.000
269.335; -158.550;-1137.000;-1074.000
269.476;  -11.225;   33.000;  -35.000
269.617;  -50.050; -347.000; -392.000
269.757;  -80.125; -713.000; -646.000
269.898; -108.375; -856.000; -613.000
270.039;  -51.150; -415.000; -405.000
270.180; -137.625; -952.000; -816.000
270.320;  -18.825; -190.000; -250.000
