
Integration time [ms]: 200.000
Averaging Nr. [scans]: 10
Smoothing Nr. [pixels]: 0
Data measured with spectrometer [name]: 2101012U2
Wave   ;Sample   ;Dark     ;Reference
[nm]   ;[counts] ;[counts] ;[counts] 

197.733;  170.100;  516.000;  404.000
197.879; -182.500; -610.000; -634.000
198.025;  -84.700; -475.000; -420.000
198.171; -169.400; -602.000; -612.000
198.317;  -58.700; -401.000; -316.000
198.463; -132.900; -655.000; -404.000
198.609;   28.900;  181.000; -137.000
198.755; -170.000; -644.000; -410.000
198.901; -139.300; -505.000; -424.000
199.047; -153.400; -615.000; -488.000
199.193;  -97.300; -230.000; -468.000
199.339;  -92.200; -222.000; -369.000
199.485;   89.300;  330.000;  271.000
199.631;   54.700;  227.000;  310.000
199.777;  -82.700; -466.000; -398.000
199.923; -139.300; -610.000; -424.000
200.069;   -5.000; -141.000;  -58.000
200.215;  107.200;  128.000;  453.000
200.361;   86.600;  243.000;  477.000
200.507; -138.500; -600.000; -373.000
200.653;  -48.000; -371.000; -194.000
200.798;  -51.000; -215.000; -125.000
200.944;    6.400; -146.000;  -41.000
201.090;   51.900;   61.000;  222.000
201.236;   10.300; -116.000; -158.000
201.382;  258.100;  874.000;  903.000
201.528;   32.400;  -58.000;  -48.000
201.674; -124.600; -386.000; -293.000
201.819; -108.300; -540.000; -439.000
201.965; -166.900; -699.000; -447.000
202.111;  -45.400; -273.000; -226.000
202.257;  -74.100; -250.000; -238.000
202.402;   23.900;   13.000;  -36.000
202.548;  -92.500; -169.000; -116.000
202.694;  177.700;  410.000; -183.000
202.840; -177.800; -603.000; -531.000
202.985; -155.900; -681.000; -639.000
203.131; -203.000; -832.000; -666.000
203.277;  -39.100; -199.000; -262.000
203.423; -125.300; -434.000; -520.000
203.568;  -71.300; -462.000; -237.000
203.714; -140.100; -535.000; -542.000
203.860; -171.200; -682.000; -641.000
204.005;   28.600;  112.000;  167.000
204.151;  158.700;  561.000;  556.000
204.296;  -93.100; -354.000; -221.000
204.442; -114.500; -600.000; -547.000
204.588; -161.500; -592.000; -579.000
204.733;   64.100;  178.000;  168.000
204.879; -263.700;-1018.000; -822.000
205.025;   16.400;  -99.000;  126.000
205.170;   -2.700;  -17.000;   94.000
205.316;  158.200;  438.000;  661.000
205.461; -174.000; -698.000; -554.000
205.607;  187.000;  609.000;  665.000
205.752; -177.500; -626.000; -551.000
205.898;  -94.000; -501.000; -391.000
206.043; -172.100; -578.000; -506.000
206.189;  -70.400; -243.000; -285.000
206.334;  155.100;  554.000;  606.000
206.480;  183.100;  409.000;  239.000
206.625; -174.000; -529.000; -552.000
206.771; -102.100; -451.000; -373.000
206.916;  -75.200; -210.000; -537.000
207.062; -139.100; -545.000; -591.000
207.207; -141.700; -546.000; -443.000
207.353;  130.200;  185.000;  460.000
207.498;   25.100;  196.000;   85.000
207.643;  -72.900; -501.000; -370.000
207.789; -249.400;-1069.000; -910.000
207.934; -198.800; -665.000; -713.000
208.080;  -69.200; -154.000;   66.000
208.225;    8.300;  -22.000;  -57.000
208.370; -177.200; -727.000; -619.000
208.516; -160.300; -741.000; -487.000
208.661;  -51.600; -127.000;  -69.000
208.806;   -8.100; -165.000; -171.000
208.952; -268.100;-1044.000; -731.000
209.097;  183.800;  378.000;  349.000
209.242; -126.700; -307.000; -382.000
209.387;   82.900;  392.000;  350.000
209.533; -115.700; -321.000; -350.000
209.678;  164.200;  472.000;  543.000
209.823; -134.400; -408.000; -310.000
209.969; -215.400; -860.000; -757.000
210.114; -207.900; -907.000; -719.000
210.259; -258.900; -939.000; -889.000
210.404;  -27.800; -171.000;  103.000
210.549;   49.600;  108.000;    3.000
210.695;  -47.400;   -3.000;  -95.000
210.840;   89.400;   94.000;   67.000
210.985; -119.000; -484.000; -303.000
211.130;  164.700;  268.000;  406.000
211.275;   42.500;  207.000;  199.000
211.420; -116.900; -300.000; -289.000
211.566; -163.200; -536.000; -489.000
211.711;   82.100;  218.000;  157.000
211.856; -154.500; -545.000; -519.000
212.001;   38.300;  151.000;   44.000
212.146;   27.600;  153.000;   49.000
212.291;  -40.800; -210.000; -186.000
212.436;  -69.800; -280.000;   -6.000
212.581; -159.800; -685.000; -653.000
212.726; -151.700; -487.000; -538.000
212.871;  -72.900; -552.000; -217.000
213.016; -324.500;-1172.000;-1029.000
213.161;  142.500;  406.000;  291.000
213.306; -171.100; -435.000; -577.000
213.451; -214.900; -778.000; -689.000
213.596;  -78.800; -455.000; -347.000
213.741; -115.900; -448.000; -538.000
213.886; -191.300; -498.000; -517.000
214.031;  -45.600; -294.000; -124.000
214.176; -107.000; -408.000; -341.000
214.321;  -18.700; -296.000; -157.000
214.466;  -65.300; -163.000;  -43.000
214.611;   16.500;  -61.000;  -10.000
214.756; -254.900; -948.000; -858.000
214.901;  -68.600; -388.000; -226.000
215.046; -272.000; -797.000; -825.000
215.191;   26.900;  128.000;   35.000
215.336;  -55.300; -157.000;  -19.000
215.480; -116.900; -684.000; -505.000
215.625;  -44.700; -175.000;  -19.000
215.770; -162.000; -757.000; -662.000
215.915;   14.100;   -5.000;  -97.000
216.060;    6.900; -113.000;  -21.000
216.205; -235.900; -731.000; -779.000
216.349; -161.000; -470.000; -533.000
216.494; -293.200; -939.000; -867.000
216.639; -226.000; -823.000; -888.000
216.784; -207.300; -577.000; -525.000
216.929;  125.000;  392.000;  281.000
217.073;   11.000; -244.000;  -31.000
217.218;   40.200;   78.000;  -47.000
217.363; -190.300; -656.000; -618.000
217.507; -164.600; -623.000; -588.000
217.652; -253.500; -845.000; -874.000
217.797; -191.900; -708.000; -659.000
217.942; -233.400; -856.000; -720.000
218.086;  172.900;  608.000;  539.000
218.231;  -56.700; -174.000;  -26.000
218.376;  -32.200; -337.000; -229.000
218.520;    9.500;  -41.000;   96.000
218.665;  -45.100; -338.000; -204.000
218.810;  -67.600; -275.000; -233.000
218.954;   37.300;  201.000;   35.000
219.099; -219.000; -713.000; -963.000
219.243; -152.000; -589.000; -554.000
219.388;  -40.700; -264.000; -136.000
219.532;  -27.100; -116.000; -116.000
219.677; -149.700; -564.000; -521.000
219.822;   14.300;   33.000;   89.000
219.966;    9.100;   17.000;  -99.000
220.111;  -75.800; -328.000;  -40.000
220.255; -206.600; -797.000; -750.000
220.400;  -22.900; -180.000; -146.000
220.544; -150.100; -516.000; -450.000
220.689;  -92.000; -422.000; -451.000
220.833;  -24.700; -123.000;  -58.000
220.978;  -88.000; -393.000; -563.000
221.122;   60.000;  319.000;  307.000
221.267; -220.000; -906.000; -837.000
221.411; -152.800; -478.000; -394.000
221.555;    8.000; -104.000;  -23.000
221.700; -109.800; -329.000; -222.000
221.844;   64.800;  255.000;  272.000
221.989;  -93.400; -328.000; -311.000
222.133;  -89.800; -289.000; -307.000
222.277;  -37.900;    5.000;   78.000
222.422;   42.200;  227.000;  113.000
222.566;  -94.600; -381.000; -214.000
222.711; -100.900; -414.000; -479.000
222.855; -163.700; -643.000; -586.000
222.999; -149.200; -642.000; -717.000
223.144;  -61.800; -195.000; -194.000
223.288;  114.700;  423.000;  251.000
223.432;   36.300;  184.000;  230.000
223.576;   44.800;  152.000;  -21.000
223.721;   73.500;  364.000;  273.000
223.865;  -91.200; -472.000; -475.000
224.009;  549.000; 1673.000; 1631.000
224.153; -155.700; -660.000; -671.000
224.298; -147.000; -531.000; -489.000
224.442;  -22.100;  -74.000;  -33.000
224.586;  -16.600; -169.000; -106.000
224.730; -184.000; -858.000; -670.000
224.875; -222.000; -739.000; -688.000
225.019;   53.400;  102.000;  188.000
225.163;  116.400;  208.000;  341.000
225.307;   39.200;   97.000;  -91.000
225.451;  124.100;  360.000;  481.000
225.595;   83.200;  264.000;  176.000
225.739;  -31.600; -170.000;  -94.000
225.884;   26.000;   86.000;    5.000
226.028; -186.500; -760.000; -626.000
226.172;  -73.600; -260.000; -273.000
226.316; -257.100; -941.000; -902.000
226.460; -125.200; -645.000; -493.000
226.604; -118.300; -406.000; -400.000
226.748; -177.200; -836.000; -733.000
226.892;  -67.000; -227.000; -181.000
227.036;  -48.700; -537.000; -447.000
227.180; -129.800; -551.000; -375.000
227.324; -139.000; -561.000; -580.000
227.468; -248.000; -819.000; -717.000
227.612;   10.700;  242.000;  -28.000
227.756; -227.900; -845.000; -698.000
227.900;  117.200;  342.000;  441.000
228.044; -121.500; -509.000; -290.000
228.188;  123.400;  448.000;  568.000
228.332; -188.200; -546.000; -472.000
228.476;  -22.400; -223.000; -149.000
228.620;  -21.900; -210.000; -150.000
228.764;  177.200;  431.000;  349.000
228.908;  -40.200; -155.000;   30.000
229.052;  -95.700; -615.000; -528.000
229.195;  -31.100; -172.000;   13.000
229.339;  -51.600; -235.000; -305.000
229.483;  -73.700;    5.000; -162.000
229.627;   17.700; -156.000;  139.000
229.771; -107.900; -218.000; -294.000
229.915;   17.700;  230.000;   79.000
230.059; -176.800; -648.000; -663.000
230.202;  -55.200; -370.000; -317.000
230.346;  -14.800; -107.000;  107.000
230.490; -143.200; -489.000; -521.000
230.634; -213.700; -736.000; -553.000
230.777;  141.900;  478.000;  509.000
230.921; -118.300; -450.000; -359.000
231.065;  -82.000; -246.000; -286.000
231.209;   39.600;  261.000;  265.000
231.352;   66.100;   54.000;   40.000
231.496;   30.000;  568.000;  188.000
231.640; -163.900; -693.000; -621.000
231.783;  113.700;  546.000;  525.000
231.927;  -80.600; -294.000; -365.000
232.071; -241.400; -962.000; -736.000
232.214; -212.000; -980.000; -764.000
232.358; -166.700; -683.000; -599.000
232.502;   36.000;  -19.000;    7.000
232.645; -282.600;-1090.000; -927.000
232.789;  -40.000; -257.000; -218.000
232.933;  -52.300; -407.000; -224.000
233.076; -253.200;-1038.000; -897.000
233.220; -185.500; -752.000; -777.000
233.363; -151.100; -669.000; -477.000
233.507;  137.100;  371.000;  129.000
233.650; -173.400; -764.000; -834.000
233.794;   92.500;  438.000;  461.000
233.938; -107.700; -530.000; -362.000
234.081;   -8.100;  -93.000;   31.000
234.225; -123.900; -631.000; -539.000
234.368; -213.900; -773.000; -723.000
234.512;  -79.600; -385.000; -299.000
234.655; -183.000; -582.000; -555.000
234.798; -109.500; -493.000; -466.000
234.942; -260.000; -884.000;-1002.000
235.085; -145.200; -651.000; -443.000
235.229; -156.500; -405.000; -410.000
235.372;  -99.500; -247.000; -191.000
235.516;  -99.300; -397.000; -321.000
235.659;   60.600;   92.000;  121.000
235.802;  -38.600;  -38.000;  -22.000
235.946;   66.900;  335.000;  215.000
236.089;   76.100;  126.000;  250.000
236.233;  135.600;  275.000;  298.000
236.376; -116.300; -235.000; -378.000
236.519;  -61.000; -297.000; -319.000
236.663;  -63.500; -215.000; -117.000
236.806; -271.700;-1029.000; -999.000
236.949;  148.400;  543.000;  431.000
237.092;  130.200;  412.000;  391.000
237.236; -165.100; -589.000; -502.000
237.379;  155.400;  352.000;  428.000
237.522; -227.400; -879.000; -768.000
237.666;  -18.700; -271.000;   18.000
237.809; -244.900; -851.000; -823.000
237.952;   76.000;  469.000;  271.000
238.095; -155.400; -447.000; -442.000
238.238;  192.600;  688.000;  700.000
238.382;   -0.400;  166.000;  103.000
238.525; -180.700; -598.000; -511.000
238.668; -272.900;-1060.000; -985.000
238.811; -149.700; -638.000; -643.000
238.954;  -94.300; -483.000; -334.000
239.097;  211.600;  617.000;  664.000
239.241;   53.500;  394.000;  326.000
239.384;  -73.600; -254.000; -214.000
239.527; -141.000; -424.000; -224.000
239.670; -293.900; -994.000;-1091.000
239.813; -206.300; -696.000; -658.000
239.956;  177.400;  579.000;  473.000
240.099; -225.800; -778.000; -725.000
240.242;  154.700;  428.000;  432.000
240.385;   94.600;  466.000;  450.000
240.528; -145.000; -706.000; -473.000
240.671;   58.600;  189.000;  134.000
240.814;  -74.600; -441.000; -158.000
240.957; -189.300; -767.000; -578.000
241.100; -189.800; -779.000; -755.000
241.243; -326.900;-1234.000; -893.000
241.386; -122.100; -508.000; -379.000
241.529; -158.600; -735.000; -547.000
241.672; -100.700; -566.000; -495.000
241.815; -219.500; -832.000; -808.000
241.958;  -39.700; -125.000; -182.000
242.101; -147.000; -545.000; -390.000
242.244;  -71.100; -270.000; -325.000
242.387;  -93.400; -304.000; -246.000
242.530;  172.100;  470.000;  134.000
242.673;  -71.200; -381.000; -309.000
242.815; -222.800; -925.000; -899.000
242.958; -173.300; -482.000; -381.000
243.101;   43.800;  132.000;  187.000
243.244; -169.100; -564.000; -521.000
243.387;  -63.200; -313.000; -316.000
243.530; -195.800; -657.000; -674.000
243.672;   24.600;   43.000;  -92.000
243.815;  -90.100; -355.000; -283.000
243.958;   28.000;   98.000;  -26.000
244.101;   17.300;   59.000;  -16.000
244.243;  -30.400;  -47.000;  101.000
244.386; -218.500; -761.000; -630.000
244.529;   -3.600; -132.000; -139.000
244.672; -325.600;-1154.000; -951.000
244.814; -208.000; -621.000; -794.000
244.957; -117.000; -380.000; -304.000
245.100; -143.100; -489.000; -489.000
245.242; -122.100; -387.000; -374.000
245.385;   16.400;  -59.000;  -39.000
245.528; -236.300; -871.000; -705.000
245.670;  201.300;  612.000;  634.000
245.813; -192.100; -599.000; -547.000
245.956;  -37.600; -324.000; -275.000
246.098; -129.000; -508.000; -650.000
246.241;   29.000;  194.000;   48.000
246.383;  -33.100; -119.000;  -73.000
246.526; -158.300; -454.000; -525.000
246.669; -247.200; -889.000; -780.000
246.811;   45.100;  172.000;   -1.000
246.954; -113.300; -512.000; -426.000
247.096;  -11.800;  -84.000;   -6.000
247.239; -159.300; -482.000; -445.000
247.381; -132.300; -647.000; -488.000
247.524;  217.900;  645.000;  679.000
247.666;  -36.900;   58.000;   11.000
247.809; -218.600; -887.000; -691.000
247.951;   11.300;  -75.000;  138.000
248.094;   61.800;  432.000;  308.000
248.236; -308.100;-1262.000;-1238.000
248.378;   17.100; -356.000;  -81.000
248.521;  -15.200; -334.000; -337.000
248.663;  -89.400; -236.000; -267.000
248.806;  -50.400; -300.000; -266.000
248.948; -191.900; -886.000; -763.000
249.090;  -65.500; -428.000; -398.000
249.233; -102.500; -344.000; -381.000
249.375; -108.900; -474.000; -451.000
249.518;  -20.300;  -83.000; -133.000
249.660;  -38.500; -103.000;    3.000
249.802; -365.000;-1303.000;-1189.000
249.945; -150.000; -612.000; -540.000
250.087; -231.800; -834.000; -768.000
250.229;  -80.600; -362.000; -480.000
250.371; -147.200; -494.000; -439.000
250.514; -109.400; -310.000; -244.000
250.656; -117.300;   69.000;  102.000
250.798; -226.400; -849.000; -800.000
250.940; -132.900; -322.000; -322.000
251.083;  -58.200; -335.000; -111.000
251.225;  157.100;  338.000;  310.000
251.367;  -65.100; -274.000; -373.000
251.509;  -61.200; -265.000; -210.000
251.651; -192.600; -731.000; -671.000
251.794;  115.300;  538.000;  632.000
251.936; -211.700; -821.000; -747.000
252.078; -162.300; -540.000; -461.000
252.220; -145.700; -645.000; -477.000
252.362;  164.300;  344.000;  462.000
252.504; -141.600; -677.000; -584.000
252.646; -219.800; -875.000; -722.000
252.788;   25.800;   14.000; -128.000
252.931;  -88.500; -257.000; -253.000
253.073;  -53.900; -376.000; -317.000
253.215;  -19.300;  141.000;  122.000
253.357;   -1.000;   82.000; -153.000
253.499;  -83.800; -374.000; -234.000
253.641; -168.200; -749.000; -594.000
253.783; -174.900; -609.000; -527.000
253.925; -191.400; -586.000; -591.000
254.067; -219.500; -744.000; -667.000
254.209;  -50.900; -391.000; -259.000
254.351; -282.700; -865.000; -883.000
254.493; -120.400; -441.000; -417.000
254.635; -210.600; -936.000; -818.000
254.777; -160.300; -752.000; -687.000
254.918; -134.600; -512.000; -430.000
255.060; -105.700; -551.000; -395.000
255.202;  -92.700; -473.000; -261.000
255.344; -145.400; -658.000; -455.000
255.486; -152.200; -471.000; -406.000
255.628; -222.700; -780.000; -781.000
255.770; -151.700; -676.000; -536.000
255.912; -111.100; -559.000; -468.000
256.053; -176.700; -730.000; -508.000
256.195;  363.500; 1008.000;  903.000
256.337; -223.700; -861.000; -595.000
256.479;  162.100;  532.000;  416.000
256.621; -107.300; -394.000; -212.000
256.762; -203.700; -789.000; -742.000
256.904;  118.700;  485.000;  487.000
257.046;  -46.800; -381.000; -271.000
257.188; -109.500; -351.000; -264.000
257.329; -134.000; -525.000; -464.000
257.471; -254.500; -939.000; -807.000
257.613; -111.700; -584.000; -498.000
257.755; -295.100;-1073.000; -982.000
257.896;  101.000;  286.000;  392.000
258.038; -107.600; -403.000; -352.000
258.180;  -70.100; -354.000; -279.000
258.321; -162.600; -581.000; -457.000
258.463;   11.000;  -71.000;  133.000
258.605; -176.500; -562.000; -570.000
258.746; -205.800; -886.000; -772.000
258.888; -328.700;-1026.000;-1020.000
259.029;   67.300;  121.000;   -8.000
259.171; -152.200; -614.000; -550.000
259.313;    4.200;  -49.000;  -47.000
259.454; -123.600; -536.000; -414.000
259.596; -111.800; -483.000; -390.000
259.737; -148.000; -590.000; -474.000
259.879;  120.200;  217.000;  311.000
260.020;  199.800;  901.000;  636.000
260.162;  -57.100; -146.000; -253.000
260.303; -235.600; -768.000; -687.000
260.445; -147.300; -609.000; -613.000
260.586;   47.700;  392.000;  157.000
260.728;  -81.200; -360.000; -248.000
260.869; -134.100; -350.000; -343.000
261.011;  191.900;  706.000;  537.000
261.152; -118.500; -479.000; -319.000
261.293; -160.200; -576.000; -595.000
261.435;  -51.800; -219.000; -184.000
261.576;  -90.400; -455.000; -325.000
261.718;   96.800;  420.000;  470.000
261.859; -231.200; -940.000; -949.000
262.000; -271.900; -951.000;-1016.000
262.142;  -13.200;  -52.000;  -60.000
262.283; -237.600; -808.000; -691.000
262.424; -178.900; -666.000; -625.000
262.566; -312.100;-1161.000; -983.000
262.707; -188.000; -840.000; -830.000
262.848; -205.200; -769.000; -726.000
262.990;  -76.600; -362.000; -345.000
263.131;  197.200;  650.000;  681.000
263.272;  -32.900;  -61.000;  -41.000
263.413; -183.200; -589.000; -561.000
263.555; -111.700; -669.000; -143.000
263.696; -177.400; -550.000; -641.000
263.837;  -92.000; -449.000; -551.000
263.978;   -9.200;   -5.000;  -77.000
264.119;  -92.800; -283.000; -264.000
264.261; -239.900; -847.000; -630.000
264.402;   14.300;   33.000;   40.000
264.543; -130.700; -509.000; -524.000
264.684;  -23.700;   61.000;  -50.000
264.825; -142.000; -816.000; -538.000
264.966;   17.200;  -84.000;  -67.000
265.107; -258.700; -646.000; -670.000
265.248; -217.600; -825.000; -812.000
265.390;   -5.600;  152.000;   -9.000
265.531;   -4.800; -238.000; -107.000
265.672; -170.500; -557.000; -630.000
265.813;  131.800;  563.000;  439.000
265.954; -305.500; -959.000; -940.000
266.095;   -6.100; -372.000; -322.000
266.236; -203.600; -686.000; -548.000
266.377;  -58.300; -243.000; -297.000
266.518; -155.200; -619.000; -547.000
266.659;   89.900;  170.000;  268.000
266.800;    2.700;   83.000;   85.000
266.941; -154.400; -487.000; -478.000
267.082;   37.700;  354.000;   99.000
267.223;  -85.200; -344.000; -273.000
267.364; -249.900; -892.000; -686.000
267.504;    4.900;    3.000;  135.000
267.645;   -7.900;  160.000;   67.000
267.786;  -53.400; -147.000;  -86.000
267.927; -146.500; -473.000; -379.000
268.068;   -6.500; -186.000;  -61.000
268.209; -113.600; -175.000; -413.000
268.350; -123.800; -388.000; -532.000
268.490; -188.600; -648.000; -521.000
268.631;  105.500;  127.000;  225.000
268.772; -212.100; -874.000; -647.000
268.913;  -71.800; -328.000; -476.000
269.054;  -62.900; -117.000;   12.000
269.194;  -83.400; -418.000; -402.000
269.335; -292.000;-1137.000;-1074.000
269.476;  -27.400;   33.000;  -35.000
269.617;  -99.100; -347.000; -392.000
269.757; -180.100; -713.000; -646.000
269.898; -207.800; -856.000; -613.000
270.039; -125.200; -415.000; -405.000
270.180; -252.400; -952.000; -816.000
270.320;  -12.700; -190.000; -250.000
