
Integration time [ms]: 100.000
Averaging Nr. [scans]: 40
Smoothing Nr. [pixels]: 0
Data measured with spectrometer [name]: 2101013U2
Wave   ;Sample   ;Dark     ;Reference
[nm]   ;[counts] ;[counts] ;[counts] 

394.013;   57.222; -450.257; -315.536
394.305;  258.295; -461.258; -419.536
394.596; 1088.593; -676.269; -527.514
394.887; 2580.035; -796.268; -654.518
395.178;  989.040;  145.736;   11.476
395.470;   93.101; -210.263; -356.526
395.761;  220.774;  305.734;  394.479
396.052;  376.819; -545.284; -306.489
396.343;  394.563; -557.276; -454.503
396.634;  142.083; -200.279; -290.497
396.926;  162.557; -618.268; -565.517
397.217;  140.968;   11.725;  -17.504
397.508;   53.834; -366.273; -154.507
397.799;   65.058; -555.279; -571.497
398.090;   12.452; -973.280; -902.495
398.381;  148.745;   11.708;  -11.473
398.672;   -2.804; -585.292; -742.473
398.963;   70.489; -348.279; -373.498
399.254;  128.830;   54.709; -209.475
399.545;  -14.104;-1017.266; -883.520
399.836;   63.153; -407.277; -343.501
400.127;   77.847; -205.295; -209.468
400.418;   67.003; -423.274; -392.506
400.709;   89.464; -359.281; -333.493
401.000;   46.484; -268.291; -309.476
401.290;  107.359;  225.698;  115.545
401.581;   63.002; -166.286; -228.485
401.872;   28.894; -542.298; -486.462
402.163;   47.789; -313.296; -252.467
402.454;  100.256; -123.291; -163.475
402.744;   87.581; -844.297; -813.465
403.035;  509.562; -226.293;  -86.471
403.326;  668.899; -366.292; -384.474
403.617;  444.539;  204.701;  165.539
403.907;  260.125; -593.283; -679.490
404.198; 2329.714; -545.307; -599.446
404.489; 6114.205; -618.283; -588.491
404.779; 2118.538; -618.302; -660.456
405.070;  244.541;  -67.304; -174.451
405.360;  338.464; -259.293; -238.472
405.651;  368.849;  125.699;   98.542
405.942;  217.323;  209.714;  127.516
406.232;  331.312; -432.285; -413.487
406.523;  548.332;  641.706;  758.530
406.813;  119.575; -579.286; -644.484
407.104;  398.294;  261.708;  144.527
407.394;  211.790; -604.299; -591.462
407.685;  162.361;  336.715;  222.513
407.975;   64.404; -400.283; -382.490
408.265;  118.645; -134.289; -190.478
408.556;   71.978; -472.291; -459.475
408.846;  166.232;  474.706;  429.530
409.137;   92.304;   -1.288; -216.480
409.427;   61.712; -193.285; -271.487
409.717;   45.612; -776.273; -692.508
410.007;  154.080;    4.715; -170.486
410.298;   88.549; -360.295; -342.469
410.588;   89.609; -495.285; -510.486
410.878;   39.015; -792.287; -873.482
411.168;  134.372; -481.298; -478.463
411.459;  137.873; -295.283; -242.489
411.749;   72.352; -609.292; -507.474
412.039;   63.927; -755.289; -386.480
412.329;  201.896;   40.722;  132.501
412.619;  222.825;  -62.286; -148.485
412.909;  380.698;  639.711;  594.521
413.199;  387.102; -130.280; -251.495
413.490;  434.864;  521.710;  352.523
413.780;  160.706;-1013.279; -913.496
414.070;  329.164;  -46.276;  235.497
414.360;  389.492; -729.278; -666.498
414.650;  427.461; -726.288; -688.482
414.940;  524.481; -538.280; -441.496
415.230;  932.808;   50.712;   74.519
415.520; 5950.642;  155.730;   66.486
415.809;23393.064; -305.281; -125.493
416.099;17942.430; -388.277; -229.501
416.389; 4933.551;  435.726;  236.494
416.679; 2908.679;   91.738;   85.473
416.969;  546.194; -527.287; -503.483
417.259;  469.808;  341.721;  171.503
417.549;  694.188;  522.718;  318.508
417.838; 1601.859; -205.268; -147.518
418.128; 5294.694;  650.710;  492.522
418.418; 4423.643; -491.272; -579.509
418.708; 2962.076;    9.726;  -48.506
418.997;11110.122; -474.275; -480.505
419.287;11579.683; -733.273; -790.507
419.577;10848.798; -160.283; -123.489
419.866;35909.403; -588.277; -498.501
420.156;37224.763; -242.270;  -55.513
420.446; 6722.222; -112.263;  -26.526
420.735;  925.907; -376.271; -446.512
421.025;  864.841; 1830.722;  315.502
421.314;  758.481; -203.271; -226.512
421.604; 1715.102;   89.732;  233.484
421.893;  997.202; -705.271; -602.511
422.183;  258.547; -487.263; -461.526
422.472;  396.103;  -36.271; -107.511
422.762;  503.527; -416.266; -379.521
423.051;  269.440; -916.276; -916.503
423.341;  343.110; -491.273; -439.507
423.630;  445.083; -121.265;   15.477
423.919;  405.571;   58.725;   49.495
424.209;  368.903;  -31.263;   56.473
424.498;  497.632;   68.732;  161.483
424.787; 1087.688; -535.267; -601.518
425.077; 3353.956;   34.735;   29.478
425.366; 5040.158; -734.262; -744.528
425.655; 9728.660;  639.727;  259.493
425.945;20110.386; -313.247; -268.554
426.234;11117.231;  117.741;  300.467
426.523; 4949.486;  -86.259; -350.534
426.812; 6707.873;  107.734;  159.480
427.101; 9895.248; -127.269; -323.515
427.390;12696.542;  -55.270;  -86.514
427.680; 3174.330; -624.257; -411.538
427.969;  511.391; -330.255; -301.540
428.258;  331.947; -385.257; -477.536
428.547;  568.172;  449.728;  397.490
428.836; 1464.957; -421.253; -398.543
429.125; 2110.862; -199.259;  -72.534
429.414;  877.304; -330.251; -294.548
429.703; 3034.229; -231.251; -213.548
429.992; 9000.808; -938.250; -828.549
430.281; 5908.765; -397.264; -331.524
430.570;  598.745;  -21.252;   32.454
430.859;  645.810;  279.741;  352.466
431.148;  480.431;  636.752;  631.446
431.437;  295.869;  391.748;  367.454
431.725;  159.773; -544.257; -481.536
432.014;  139.664; -845.253; -756.545
432.303;  393.931; -149.239; -105.569
432.592;  671.997; -460.263; -178.525
432.881; 1064.183; -601.248; -437.554
433.169; 5937.117; -343.255;  -61.540
433.458;12031.890;  445.765;  540.424
433.747; 5098.914; -397.261; -289.529
434.036;  980.957; -275.242; -280.564
434.324; 2073.545; -395.249; -379.551
434.613; 3555.876;   40.757;  159.437
434.902; 1239.121;  333.760;  439.433
435.190;  697.105;   75.761;  295.431
435.479;  396.133;  -52.245;   83.441
435.767;  123.166; -411.244; -427.561
436.056;  254.078; -340.242; -294.563
436.345;  369.924; -372.240; -223.568
436.633;  406.940;   60.750;  383.450
436.922;  314.076;  208.760;  414.432
437.210;  738.805; -194.236;    1.426
437.499; 2457.663; -583.235; -432.576
437.787; 2708.004; -339.236;  -10.574
438.075;  647.911;   56.761;  162.430
438.364;  895.288;  -44.238;  250.429
438.652;  558.066; -286.226; -138.592
438.941;  172.806;    3.770;  269.415
439.229;   12.467; -665.252; -466.545
439.517;   47.771; -160.234;  -85.577
439.806;    5.532; -501.225; -290.595
440.094;  212.153;  377.766;  650.421
440.382;  234.282; -653.233; -302.580
440.670;  258.462; -361.235; -285.576
440.959;   49.899; -347.223; -170.599
441.247;   87.942; -151.229; -109.587
441.535;  118.019; -266.235;   31.423
441.823;   55.976; -497.234; -305.578
442.111;  192.071;  173.771;  327.412
442.400;  618.357; -628.245; -335.559
442.688; 1721.803; -111.234; -620.579
442.976; 1269.461; -786.213; -450.617
443.264;  134.664; -324.224; -364.597
443.552;  112.017; -258.226;   51.408
443.840;  171.743;  602.765;  876.423
444.128;  121.256;  265.767;  269.420
444.416;    5.074; -694.228; -312.588
444.704;   37.078; -465.219;  -92.605
444.992;   98.445;   -0.226;  240.407
445.280;   69.407; -517.230;  -94.585
445.568;   53.739; -694.212; -396.618
445.856;  396.438; -174.221;  357.398
446.143;  959.700;  -54.220;   -7.604
446.431;  774.828;  -25.228;  625.411
446.719;  263.897;  489.783;  675.391
447.007;  207.501;  481.769;  705.416
447.295;  187.846;  597.777;  871.402
447.583;   92.515; -464.229;  -34.587
447.870;  175.210; -434.221; -202.601
448.158;  490.705; -104.230;  129.415
448.446;  391.351; -800.219; -338.604
448.733;  189.265;   13.776;  269.403
449.021;  269.864;   60.788;  341.382
449.309;  188.654; -296.210;  208.379
449.596;  236.769;  128.783;   59.392
449.884;  167.103; -571.222; -325.600
450.172;  141.983; -756.227; -406.590
450.459;  410.744;  645.786;  780.387
450.747; 2195.317; -411.218; -147.608
451.034; 7217.304;  493.772;  889.411
451.322; 5863.297; -413.214; -170.614
451.609;  509.841;  292.777;  508.403
451.897;  563.316; -550.203; -183.634
452.184; 1728.046; -622.223; -400.598
452.472; 1626.775;   97.792;  269.375
452.759;  364.601;  512.781;  864.395
453.047;  121.561; -407.212; -125.617
453.334;   88.884; -732.219; -216.606
453.621;   98.399; -438.214; -161.615
453.909;  127.633;   13.796;  384.368
454.196;  117.728; -299.199; -123.641
454.483;  219.504;  317.798;  540.364
454.771;  140.478; -215.208;  196.374
455.058;   29.256; -316.207;  102.374
455.345;   98.607;   71.807;  344.347
455.632;   99.209; -128.207;  235.373
455.919;   47.625;  -82.196;  182.354
456.207;  -35.218; -774.198; -450.642
456.494;  -10.885; -475.200;  -66.639
456.781;   18.824; -399.202; -198.635
457.068;   65.266; -253.206;  -29.628
457.355;    0.767; -698.206; -401.629
457.642;    5.697; -552.205; -290.630
457.929;    8.273; -778.194; -417.651
458.216;   56.137; -575.212; -354.617
458.503;  233.878; -173.193;  -19.652
458.790;  210.126; -864.208; -630.625
459.077;  276.004;  -77.202;  110.364
459.364;  773.566; -350.195; -210.649
459.651; 1623.189;  -46.206;  220.372
459.938;  751.316; -864.209; -665.623
460.225;  167.732;  132.799;  276.363
460.512;  -36.953; -836.197; -688.645
460.799;  110.541;  -32.218;  320.392
461.086;   77.770; -370.200; -251.640
461.372;   66.057; -509.198; -279.642
461.659;  124.301; -165.196;  108.354
461.946;   77.076; -445.193;  -54.651
462.233;  239.718;  842.800;  888.361
462.519;  357.665; -814.201; -464.639
462.806;  984.473; -768.197; -497.645
463.093;  839.972; -445.191;  -66.656
463.380;  -18.987; -920.186; -824.664
463.666;   71.724; -259.197;  -18.646
463.953;   94.736; -406.195; -243.648
464.239;  206.336; -173.195;  -77.648
464.526;  406.972;  413.806;  743.350
464.813;  384.508; -565.190; -304.658
465.099;  381.627;  606.807;  607.348
465.386;  365.981;  903.807;  921.348
465.672;   35.623; -694.197; -522.645
465.959;   34.051; -598.188; -520.662
466.245;   24.031; -468.193; -359.652
466.532;  117.709; -109.195;   63.352
466.818;   84.637; -357.186; -216.664
467.104;   18.302; -488.182; -415.672
467.391;  -22.240; -628.189; -459.658
467.677;   41.491; -289.186;    9.335
467.964;    8.017; -682.189; -471.660
468.250;   61.818; -331.186; -160.665
468.536;   77.461;   90.811;  180.341
468.822;  -38.170; -821.184; -574.668
469.109;  153.757;  351.827;  471.311
469.395;  197.341;  729.808;  787.346
469.681;  185.064;   46.811;  156.341
469.967; 1211.594; -699.188; -382.660
470.254; 2606.902; -494.188; -306.662
470.540; 1644.675; -601.196; -476.646
470.826;  249.588; -488.181; -397.675
471.112;  296.659;  288.816;  113.331
471.398;   73.613; -253.183;  -58.670
471.684;   54.891; -626.177; -447.680
471.970;   -1.708; -918.180; -981.675
472.256;   16.990; -521.192; -441.654
472.542;   21.892; -499.171; -434.691
472.828;   22.523; -743.182; -607.672
473.114;   40.010; -380.166; -283.700
473.400;   22.682; -504.175; -293.684
473.686;   44.741; -452.166; -400.701
473.972;   75.071; -230.174; -131.687
474.258;  -49.643; -925.173; -843.689
474.544;  184.658; -183.178;   -2.679
474.830;  285.659;  -65.175;   45.316
475.116;  446.910; -123.190; -196.658
475.401;  592.594; -558.180; -467.676
475.687;  189.718; -725.180; -718.676
475.973;    3.731; -673.181; -770.673
476.259;  243.636;  736.825;  764.315
476.544;  363.624; -539.176; -437.682
476.830;  761.213; -398.172; -322.690
477.116;  638.122; -430.177; -336.682
477.401;  131.543;  346.820;  358.324
477.687;  -28.218; -289.175; -405.684
477.973;   38.084;   21.819;   28.326
478.258;  -10.738; -448.163; -348.706
478.544;   48.774;   21.815;   61.334
478.829;  -60.152; -818.171; -738.692
479.115;  -34.912; -749.172; -651.690
479.401;    1.567; -444.174; -449.686
479.686;   18.442; -253.180;  -74.676
479.972;  -39.887; -886.178; -776.680
480.257;   33.662; -258.166;  -65.700
480.542;   -7.898; -614.170; -469.693
480.828;  221.430; 1288.824; 1392.317
481.113;  -17.247; -464.176; -426.683
481.399;    4.535; -236.161; -202.711
481.684;  -61.264; -620.166; -462.700
481.969;   20.848; -158.159;  -73.713
482.255;    5.312; -439.169; -285.695
482.540;    1.388; -569.178; -441.680
482.825;    9.183; -395.187; -404.663
483.110;   84.115;  -85.169; -105.696
483.396;  135.620; -840.157; -652.718
483.681;  440.172;  543.826;  730.313
483.966;  133.142; -696.160; -700.712
484.251;  -10.179; -404.174; -310.687
484.536;    5.772; -356.165; -378.703
484.822;   24.899; -205.173; -218.687
485.107;  -26.768; -599.152; -502.726
485.392;  114.352;  662.836;  541.296
485.677;   76.275;  354.832;  163.302
485.962;  101.392;  160.843;  270.283
486.247;   84.744;  -14.162;   -8.707
486.532;   44.313; -178.166; -325.701
486.817;  161.205;  381.839;  431.291
487.102;  118.640; -453.154; -514.722
487.387;  602.546; -637.156; -652.718
487.672; 1083.857; -154.164;  -38.705
487.957;  662.012; -394.160; -286.711
488.241;  208.774; -290.150; -314.729
488.526;  665.359; -280.152; -148.726
488.811; 1100.290; -881.177; -818.680
489.096;  821.768; -666.154; -702.723
489.381;  486.005;    3.847;  162.275
489.666;  348.835; -428.161; -510.710
489.950;  176.621;  558.846;  627.277
490.235;  -44.081; -480.151; -458.728
490.520;  -42.766; -756.161; -723.710
490.804;  -61.952; -827.156; -736.719
491.089;   -6.136; -469.149; -299.732
491.374;   32.431; -132.164;  -75.704
491.658;    5.226; -817.147; -717.735
491.943;  185.238; -657.152; -609.727
492.227;  280.436; -178.155;  -38.721
492.512;   68.142; -294.157; -341.717
492.797;  -57.042; -713.149; -716.731
493.081;  -58.647; -588.147; -598.735
493.366;  -33.540; -751.161; -635.711
493.650;  190.856;  831.859;  917.254
493.935;   22.525; -648.147; -447.734
494.219;  -49.882; -778.142; -687.743
494.503;  -43.947; -585.150; -487.730
494.788;   53.358;   46.842;   74.285
495.072;  102.800;  184.850;  434.271
495.356;  177.867; -463.148; -343.733
495.641;  467.760; -812.146; -736.736
495.925;  465.978; -976.156; -903.719
496.209;   44.089; -599.149; -451.732
496.494;  -36.656; -763.142; -544.744
496.778;   10.091; -364.154; -360.722
497.062;  -57.772; -819.156; -627.719
497.346;  -28.287; -869.160; -640.711
497.631;  145.021;  580.852;  560.266
497.915;   76.670;  -64.145;  175.261
498.199;   56.920; -341.157; -277.718
498.483;   49.332; -562.152; -508.725
498.767;  175.776;  301.850;  300.271
499.051;  178.186; -126.149; -100.732
499.335;   19.585; -693.149; -739.731
499.619;  -30.345; -381.129; -423.767
499.903;   35.110; -272.155;  -65.721
500.187;   42.273; -588.153; -316.724
500.471;   25.562; -796.152; -595.727
500.755;  109.809;   62.839;  -96.710
501.039;   29.311; -270.155; -357.721
501.323;   92.807;  -21.141;  264.254
501.607;   46.012; -447.163; -503.706
501.891;    2.971; -607.156; -512.718
502.174;  -30.644; -726.144; -585.741
502.458;   62.191;   89.849;  370.273
502.742;   39.931; -180.138; -191.751
503.026;   97.949; -412.147; -254.734
503.310;  146.147; -437.159; -375.713
503.593;  113.676; -464.147; -325.735
503.877;  115.696; -232.133; -156.760
504.161;  185.100;    2.847;  -50.724
504.444;  140.936; -841.158; -710.716
504.728;  417.755; -487.164; -522.704
505.012;  665.523; -257.150;  -76.729
505.295;  521.335; -417.161; -212.711
505.579;  499.453; -256.156; -496.719
505.862;  690.466; -555.145; -333.738
506.146;  676.125; -681.159; -758.714
506.429;  387.325;  568.841;  461.286
506.713;   54.020; -732.151; -667.728
506.996;  312.540;   90.846;  295.278
507.280;  313.750; -633.165; -474.703
507.563;  225.034; -469.155; -261.721
507.847;   80.373; -423.153; -112.724
508.130;   77.461; -665.161; -456.711
508.413;  109.157; -758.167; -577.700
508.697;  239.508; -151.167;   12.300
508.980;  138.900; -422.153; -312.724
509.263;    3.705; -466.155; -450.720
509.547;   34.448; -124.150;   82.271
509.830;   56.913; -172.160;  140.289
510.113;   82.852;  128.844;  298.281
510.396;   34.455; -530.152; -300.725
510.680;  213.718; -818.145; -812.738
510.963;  786.219;  184.846;  180.277
511.246;  699.130; -493.150; -357.730
511.529;  293.148; -482.145;  -83.739
511.812;  346.442; -250.134;   10.241
512.095;  246.667; -740.151; -396.728
512.378;   71.830; -317.147; -245.736
512.661;   41.688; -703.137; -623.753
512.944;   26.445; -750.142; -637.744
513.227;   73.661; -170.137; -171.752
513.510;   24.356; -479.144; -671.741
513.793;   34.112; -485.140; -435.747
514.076;  129.301;  -43.127;  -39.771
514.359;  109.365; -294.149; -135.732
514.642;   83.173; -442.142; -567.744
514.925;  697.610;  581.860;  561.253
515.208;  909.539; -498.134; -443.758
515.491;  606.977; -276.133; -182.761
515.773;  360.935; -410.143; -337.742
516.056; 1965.670;  249.864;  409.246
516.339; 2671.699; -754.136; -652.755
516.622; 2039.353; -518.150; -488.730
516.904; 1489.417;  882.857;  975.257
517.187;  724.334; -730.138; -523.752
517.470;  407.390; -568.143; -510.743
517.752;  404.126; -624.136; -470.756
518.035;  323.272; -708.139; -725.749
518.318;  328.199; -799.136; -744.755
518.600; 2206.481; -300.132; -325.762
518.883; 3059.022;  310.858;   88.256
519.165; 1487.477; -585.138; -426.751
519.448;  420.630;  -61.132;  -19.762
519.730;  221.458; -573.126; -415.773
520.013;  342.123;  588.867;  664.240
520.295; 1031.719;  -94.134;  -15.759
520.578; 2329.143; -335.131; -305.764
520.860; 2566.106; -254.132;   56.238
521.143; 1276.128; -763.135; -584.756
521.425;  495.846; -251.125; -279.775
521.707;  669.401; -622.127; -380.771
521.990; 1656.277; -199.127;  167.229
522.272; 1871.663; -116.140;   -4.748
522.554;  914.235; -237.143; -157.742
522.836;  432.292;  -24.134;   99.241
523.119;  248.598; -496.148; -189.734
523.401;  167.000; -448.130; -314.766
523.683;   86.264; -865.137; -693.753
523.965;  257.732;  408.862;  260.248
524.247;  249.967;   54.878;  170.220
524.529;  189.619; -451.134; -367.759
524.812;  336.577;   -3.130;  191.234
525.094;  807.157; -773.138; -631.751
525.376; 1259.605; -143.124;   78.223
525.658;  747.396; -441.136; -339.754
525.940;   26.940; -805.131; -671.764
526.222;   52.849; -188.136;  -88.755
526.504;  135.938; -190.131;   32.237
526.786;  247.646; -960.133; -647.760
527.068;  372.835; -124.123;  -67.778
527.349;  184.117; -865.137; -774.754
527.631;  145.930; -137.132;   22.238
527.913;  124.825; -664.127; -450.771
528.195;  138.714; -761.125; -639.774
528.477;  234.064;  -93.134;  -30.758
528.759;  109.577; -648.130; -522.766
529.040;   49.084; -569.123; -293.778
529.322;   40.792; -235.125;  -10.774
529.604;  161.754;  -47.130;   93.233
529.886;  168.033; -546.126; -302.773
530.167;  138.596;  232.870;  192.235
530.449;   50.955;    1.853;   63.265
530.731;   17.241; -572.122; -459.779
531.012;   42.861; -513.120; -216.784
531.294;   80.500; -118.116;  -43.792
531.575;  125.496;  290.875;  538.225
531.857;   42.834; -548.135; -266.757
532.138;   82.681; -113.141;   40.254
532.420;  193.455;  294.865;  403.244
532.701;  256.474; -722.133; -751.760
532.983;  403.602;  232.867;  182.239
533.264;  139.006; -243.126;  175.228
533.546;  -27.726; -491.136; -508.755
533.827;   53.995;  173.867;   -1.759
534.109;   58.284; -352.135;  -80.757
534.390;  113.834; -725.132; -582.762
534.671;  251.805; -270.135;  -82.756
534.953;  145.587; -751.123; -611.779
535.234;   12.760; -426.117; -255.789
535.515;  -89.505; -891.119; -735.785
535.796;  -14.103; -431.128; -193.770
536.078; -125.120;-1050.124; -904.777
536.359;   -1.388;  -22.123;    3.221
536.640;  -23.309; -480.125; -197.774
536.921;  162.784;  225.871;  143.232
537.202;  366.054;  -87.138;  -16.751
537.483;  440.968;  251.869;  377.236
537.764;  165.871;   17.870;   98.235
538.045;  -40.837; -543.134; -371.758
538.326;  -42.789; -596.129; -447.768
538.607;   12.627; -686.127; -476.771
538.888;  155.203;   98.879;    5.218
