
Integration time [ms]: 200.000
Averaging Nr. [scans]: 10
Smoothing Nr. [pixels]: 0
Data measured with spectrometer [name]: 2101013U2
Wave   ;Sample   ;Dark     ;Reference
[nm]   ;[counts] ;[counts] ;[counts] 

394.013;   83.803; -450.257; -315.536
394.305;  371.201; -461.258; -419.536
394.596; 1806.173; -676.269; -527.514
394.887; 4314.393; -796.268; -654.518
395.178; 1777.631;  145.736;   11.476
395.470;  107.845; -210.263; -356.526
395.761;  392.012;  305.734;  394.479
396.052;  616.417; -545.284; -306.489
396.343;  616.304; -557.276; -454.503
396.634;  107.365; -200.279; -290.497
396.926;  121.790; -618.268; -565.517
397.217;  159.010;   11.725;  -17.504
397.508;   72.329; -366.273; -154.507
397.799;   15.465; -555.279; -571.497
398.090;  -69.542; -973.280; -902.495
398.381;  169.924;   11.708;  -11.473
398.672;  -73.574; -585.292; -742.473
398.963;   57.473; -348.279; -373.498
399.254;  198.337;   54.709; -209.475
399.545; -122.092;-1017.266; -883.520
399.836;   85.590; -407.277; -343.501
400.127;   64.495; -205.295; -209.468
400.418;   39.622; -423.274; -392.506
400.709;   55.542; -359.281; -333.493
401.000;   60.442; -268.291; -309.476
401.290;  182.416;  225.698;  115.545
401.581;   92.896; -166.286; -228.485
401.872;  -19.240; -542.298; -486.462
402.163;  113.886; -313.296; -252.467
402.454;  122.038; -123.291; -163.475
402.744;   43.475; -844.297; -813.465
403.035;  607.914; -226.293;  -86.471
403.326;  800.929; -366.292; -384.474
403.617;  616.053;  204.701;  165.539
403.907;  352.924; -593.283; -679.490
404.198; 3606.059; -545.307; -599.446
404.489; 9840.331; -618.283; -588.491
404.779; 3212.321; -618.302; -660.456
405.070;  350.494;  -67.304; -174.451
405.360;  557.016; -259.293; -238.472
405.651;  612.434;  125.699;   98.542
405.942;  299.090;  209.714;  127.516
406.232;  354.508; -432.285; -413.487
406.523;  740.207;  641.706;  758.530
406.813;  134.193; -579.286; -644.484
407.104;  539.023;  261.708;  144.527
407.394;  252.755; -604.299; -591.462
407.685;  283.007;  336.715;  222.513
407.975;   96.029; -400.283; -382.490
408.265;  151.856; -134.289; -190.478
408.556;  129.934; -472.291; -459.475
408.846;  325.608;  474.706;  429.530
409.137;  163.666;   -1.288; -216.480
409.427;   70.708; -193.285; -271.487
409.717;   19.633; -776.273; -692.508
410.007;  223.500;    4.715; -170.486
410.298;  132.598; -360.295; -342.469
410.588;   64.205; -495.285; -510.486
410.878;  -12.520; -792.287; -873.482
411.168;  163.563; -481.298; -478.463
411.459;  164.222; -295.283; -242.489
411.749;   41.032; -609.292; -507.474
412.039;   30.264; -755.289; -386.480
412.329;  322.982;   40.722;  132.501
412.619;  306.793;  -62.286; -148.485
412.909;  576.559;  639.711;  594.521
413.199;  518.359; -130.280; -251.495
413.490;  653.247;  521.710;  352.523
413.780;  167.064;-1013.279; -913.496
414.070;  501.205;  -46.276;  235.497
414.360;  458.177; -729.278; -666.498
414.650;  561.075; -726.288; -688.482
414.940;  732.263; -538.280; -441.496
415.230; 1392.771;   50.712;   74.519
415.520; 9111.772;  155.730;   66.486
415.809;36382.642; -305.281; -125.493
416.099;29001.893; -388.277; -229.501
416.389; 7885.020;  435.726;  236.494
416.679; 4822.450;   91.738;   85.473
416.969;  749.186; -527.287; -503.483
417.259;  923.866;  341.721;  171.503
417.549; 1042.940;  522.718;  318.508
417.838; 2454.593; -205.268; -147.518
418.128; 8279.654;  650.710;  492.522
418.418; 7108.341; -491.272; -579.509
418.708; 4547.720;    9.726;  -48.506
418.997;17444.015; -474.275; -480.505
419.287;18372.128; -733.273; -790.507
419.577;16995.221; -160.283; -123.489
419.866;55244.291; -588.277; -498.501
420.156;57534.967; -242.270;  -55.513
420.446;10710.940; -112.263;  -26.526
420.735; 1259.159; -376.271; -446.512
421.025; 1412.276; 1830.722;  315.502
421.314; 1029.657; -203.271; -226.512
421.604; 2023.784;   89.732;  233.484
421.893; 1193.052; -705.271; -602.511
422.183;  295.341; -487.263; -461.526
422.472;  586.154;  -36.271; -107.511
422.762;  608.615; -416.266; -379.521
423.051;  296.306; -916.276; -916.503
423.341;  412.231; -491.273; -439.507
423.630;  632.922; -121.265;   15.477
423.919;  581.314;   58.725;   49.495
424.209;  537.247;  -31.263;   56.473
424.498;  754.990;   68.732;  161.483
424.787; 1541.497; -535.267; -601.518
425.077; 4867.521;   34.735;   29.478
425.366; 6684.654; -734.262; -744.528
425.655;14344.631;  639.727;  259.493
425.945;32020.014; -313.247; -268.554
426.234;18210.882;  117.741;  300.467
426.523; 7423.889;  -86.259; -350.534
426.812;10260.010;  107.734;  159.480
427.101;15059.379; -127.269; -323.515
427.390;19224.472;  -55.270;  -86.514
427.680; 4199.313; -624.257; -411.538
427.969;  710.427; -330.255; -301.540
428.258;  473.603; -385.257; -477.536
428.547;  825.246;  449.728;  397.490
428.836; 1680.347; -421.253; -398.543
429.125; 2530.091; -199.259;  -72.534
429.414; 1124.675; -330.251; -294.548
429.703; 4526.575; -231.251; -213.548
429.992;13688.679; -938.250; -828.549
430.281; 9343.132; -397.264; -331.524
430.570;  860.863;  -21.252;   32.454
430.859;  822.288;  279.741;  352.466
431.148;  735.309;  636.752;  631.446
431.437;  483.162;  391.748;  367.454
431.725;  197.705; -544.257; -481.536
432.014;  107.456; -845.253; -756.545
432.303;  576.603; -149.239; -105.569
432.592;  801.740; -460.263; -178.525
432.881; 1416.710; -601.248; -437.554
433.169; 8990.828; -343.255;  -61.540
433.458;18345.145;  445.765;  540.424
433.747; 7934.861; -397.261; -289.529
434.036; 1241.673; -275.242; -280.564
434.324; 2904.795; -395.249; -379.551
434.613; 5343.065;   40.757;  159.437
434.902; 1774.291;  333.760;  439.433
435.190;  831.401;   75.761;  295.431
435.479;  432.042;  -52.245;   83.441
435.767;  150.852; -411.244; -427.561
436.056;  267.368; -340.242; -294.563
436.345;  510.794; -372.240; -223.568
436.633;  592.689;   60.750;  383.450
436.922;  423.796;  208.760;  414.432
437.210;  752.732; -194.236;    1.426
437.499; 2533.342; -583.235; -432.576
437.787; 2873.132; -339.236;  -10.574
438.075;  749.308;   56.761;  162.430
438.364; 1011.611;  -44.238;  250.429
438.652;  637.541; -286.226; -138.592
438.941;  202.597;    3.770;  269.415
439.229;   -3.441; -665.252; -466.545
439.517;   44.053; -160.234;  -85.577
439.806;   -8.039; -501.225; -290.595
440.094;  292.762;  377.766;  650.421
440.382;  233.867; -653.233; -302.580
440.670;  273.842; -361.235; -285.576
440.959;   22.282; -347.223; -170.599
441.247;   81.711; -151.229; -109.587
441.535;  117.051; -266.235;   31.423
441.823;  -17.941; -497.234; -305.578
442.111;  310.216;  173.771;  327.412
442.400;  651.142; -628.245; -335.559
442.688; 1894.062; -111.234; -620.579
442.976; 1306.391; -786.213; -450.617
443.264;  118.269; -324.224; -364.597
443.552;  138.043; -258.226;   51.408
443.840;  334.249;  602.765;  876.423
444.128;  169.566;  265.767;  269.420
444.416;  -36.181; -694.228; -312.588
444.704;    6.319; -465.219;  -92.605
444.992;  111.346;   -0.226;  240.407
445.280;   44.298; -517.230;  -94.585
445.568;   -4.705; -694.212; -396.618
445.856;  459.999; -174.221;  357.398
446.143; 1012.414;  -54.220;   -7.604
446.431;  894.324;  -25.228;  625.411
446.719;  400.343;  489.783;  675.391
447.007;  318.091;  481.769;  705.416
447.295;  342.879;  597.777;  871.402
447.583;   84.708; -464.229;  -34.587
447.870;  165.495; -434.221; -202.601
448.158;  539.196; -104.230;  129.415
448.446;  394.216; -800.219; -338.604
448.733;  213.971;   13.776;  269.403
449.021;  341.795;   60.788;  341.382
449.309;  235.114; -296.210;  208.379
449.596;  293.838;  128.783;   59.392
449.884;  155.087; -571.222; -325.600
450.172;  158.730; -756.227; -406.590
450.459;  662.870;  645.786;  780.387
450.747; 3243.536; -411.218; -147.608
451.034;10833.225;  493.772;  889.411
451.322; 9169.274; -413.214; -170.614
451.609;  775.873;  292.777;  508.403
451.897;  740.192; -550.203; -183.634
452.184; 2468.779; -622.223; -400.598
452.472; 2476.640;   97.792;  269.375
452.759;  521.816;  512.781;  864.395
453.047;  137.692; -407.212; -125.617
453.334;   85.626; -732.219; -216.606
453.621;  117.477; -438.214; -161.615
453.909;  187.482;   13.796;  384.368
454.196;  142.638; -299.199; -123.641
454.483;  338.808;  317.798;  540.364
454.771;  207.844; -215.208;  196.374
455.058;   76.648; -316.207;  102.374
455.345;  199.206;   71.807;  344.347
455.632;  123.352; -128.207;  235.373
455.919;   84.166;  -82.196;  182.354
456.207; -157.557; -774.198; -450.642
456.494;  -20.077; -475.200;  -66.639
456.781;  -10.998; -399.202; -198.635
457.068;   93.460; -253.206;  -29.628
457.355;  -72.739; -698.206; -401.629
457.642;  -17.732; -552.205; -290.630
457.929;  -60.505; -778.194; -417.651
458.216;   43.092; -575.212; -354.617
458.503;  324.301; -173.193;  -19.652
458.790;  251.641; -864.208; -630.625
459.077;  368.808;  -77.202;  110.364
459.364; 1093.586; -350.195; -210.649
459.651; 2332.657;  -46.206;  220.372
459.938; 1049.629; -864.209; -665.623
460.225;  241.512;  132.799;  276.363
460.512; -117.038; -836.197; -688.645
460.799;  126.035;  -32.218;  320.392
461.086;   95.928; -370.200; -251.640
461.372;   29.744; -509.198; -279.642
461.659;  162.867; -165.196;  108.354
461.946;   52.599; -445.193;  -54.651
462.233;  463.925;  842.800;  888.361
462.519;  405.521; -814.201; -464.639
462.806; 1355.863; -768.197; -497.645
463.093; 1203.425; -445.191;  -66.656
463.380;  -92.824; -920.186; -824.664
463.666;   73.465; -259.197;  -18.646
463.953;  148.080; -406.195; -243.648
464.239;  259.380; -173.195;  -77.648
464.526;  579.093;  413.806;  743.350
464.813;  416.439; -565.190; -304.658
465.099;  548.700;  606.807;  607.348
465.386;  554.905;  903.807;  921.348
465.672;   25.463; -694.197; -522.645
465.959;  -25.239; -598.188; -520.662
466.245;    6.105; -468.193; -359.652
466.532;  146.877; -109.195;   63.352
466.818;   90.275; -357.186; -216.664
467.104;  -39.875; -488.182; -415.672
467.391;  -62.959; -628.189; -459.658
467.677;   13.180; -289.186;    9.335
467.964;  -21.350; -682.189; -471.660
468.250;   40.583; -331.186; -160.665
468.536;  160.243;   90.811;  180.341
468.822; -121.902; -821.184; -574.668
469.109;  268.125;  351.827;  471.311
469.395;  340.517;  729.808;  787.346
469.681;  297.747;   46.811;  156.341
469.967; 1661.552; -699.188; -382.660
470.254; 3650.562; -494.188; -306.662
470.540; 2478.165; -601.196; -476.646
470.826;  286.139; -488.181; -397.675
471.112;  439.702;  288.816;  113.331
471.398;  126.408; -253.183;  -58.670
471.684;   -3.126; -626.177; -447.680
471.970;  -64.756; -918.180; -981.675
472.256;  -18.484; -521.192; -441.654
472.542;    8.839; -499.171; -434.691
472.828;  -50.780; -743.182; -607.672
473.114;   27.593; -380.166; -283.700
473.400;  -17.606; -504.175; -293.684
473.686;   50.800; -452.166; -400.701
473.972;   47.213; -230.174; -131.687
474.258; -110.375; -925.173; -843.689
474.544;  270.964; -183.178;   -2.679
474.830;  464.097;  -65.175;   45.316
475.116;  672.741; -123.190; -196.658
475.401;  915.347; -558.180; -467.676
475.687;  239.345; -725.180; -718.676
475.973;  -59.170; -673.181; -770.673
476.259;  408.699;  736.825;  764.315
476.544;  454.384; -539.176; -437.682
476.830; 1054.634; -398.172; -322.690
477.116;  996.282; -430.177; -336.682
477.401;  271.946;  346.820;  358.324
477.687;  -32.105; -289.175; -405.684
477.973;  121.934;   21.819;   28.326
478.258;  -49.374; -448.163; -348.706
478.544;   65.590;   21.815;   61.334
478.829; -135.454; -818.171; -738.692
479.115; -127.067; -749.172; -651.690
479.401;  -10.393; -444.174; -449.686
479.686;   46.644; -253.180;  -74.676
479.972; -105.230; -886.178; -776.680
480.257;   37.294; -258.166;  -65.700
480.542;  -35.950; -614.170; -469.693
480.828;  459.992; 1288.824; 1392.317
481.113;  -54.510; -464.176; -426.683
481.399;  -52.845; -236.161; -202.711
481.684; -120.506; -620.166; -462.700
481.969;    1.372; -158.159;  -73.713
482.255;  -13.936; -439.169; -285.695
482.540;  -28.829; -569.178; -441.680
482.825;  -26.130; -395.187; -404.663
483.110;  163.468;  -85.169; -105.696
483.396;  208.799; -840.157; -652.718
483.681;  721.313;  543.826;  730.313
483.966;  180.664; -696.160; -700.712
484.251;  -15.389; -404.174; -310.687
484.536;  -43.993; -356.165; -378.703
484.822;   13.915; -205.173; -218.687
485.107;  -44.654; -599.152; -502.726
485.392;  251.414;  662.836;  541.296
485.677;  149.580;  354.832;  163.302
485.962;  167.495;  160.843;  270.283
486.247;  159.236;  -14.162;   -8.707
486.532;   30.196; -178.166; -325.701
486.817;  290.048;  381.839;  431.291
487.102;  101.525; -453.154; -514.722
487.387;  837.301; -637.156; -652.718
487.672; 1598.220; -154.164;  -38.705
487.957; 1016.157; -394.160; -286.711
488.241;  250.666; -290.150; -314.729
488.526;  986.647; -280.152; -148.726
488.811; 1547.673; -881.177; -818.680
489.096; 1209.028; -666.154; -702.723
489.381;  665.143;    3.847;  162.275
489.666;  473.355; -428.161; -510.710
489.950;  291.632;  558.846;  627.277
490.235;  -56.640; -480.151; -458.728
490.520; -116.546; -756.161; -723.710
490.804; -139.797; -827.156; -736.719
491.089;  -42.814; -469.149; -299.732
491.374;   82.419; -132.164;  -75.704
491.658;  -67.600; -817.147; -717.735
491.943;  158.053; -657.152; -609.727
492.227;  353.920; -178.155;  -38.721
492.512;   29.195; -294.157; -341.717
492.797; -136.822; -713.149; -716.731
493.081;  -84.896; -588.147; -598.735
493.366; -112.944; -751.161; -635.711
493.650;  390.969;  831.859;  917.254
493.935;   28.999; -648.147; -447.734
494.219;  -96.347; -778.142; -687.743
494.503; -125.728; -585.150; -487.730
494.788;   91.685;   46.842;   74.285
495.072;  174.868;  184.850;  434.271
495.356;  178.090; -463.148; -343.733
495.641;  560.712; -812.146; -736.736
495.925;  489.709; -976.156; -903.719
496.209;   25.585; -599.149; -451.732
496.494;  -93.846; -763.142; -544.744
496.778;   15.625; -364.154; -360.722
497.062;  -97.591; -819.156; -627.719
497.346;  -95.741; -869.160; -640.711
497.631;  285.894;  580.852;  560.266
497.915;  111.725;  -64.145;  175.261
498.199;   63.299; -341.157; -277.718
498.483;   31.145; -562.152; -508.725
498.767;  328.169;  301.850;  300.271
499.051;  252.482; -126.149; -100.732
499.335;    1.180; -693.149; -739.731
499.619;  -73.106; -381.129; -423.767
499.903;   40.918; -272.155;  -65.721
500.187;   10.634; -588.153; -316.724
500.471;  -60.148; -796.152; -595.727
500.755;  130.854;   62.839;  -96.710
501.039;    8.219; -270.155; -357.721
501.323;  120.171;  -21.141;  264.254
501.607;   34.326; -447.163; -503.706
501.891;  -57.600; -607.156; -512.718
502.174; -105.761; -726.144; -585.741
502.458;   95.457;   89.849;  370.273
502.742;   88.601; -180.138; -191.751
503.026;  127.699; -412.147; -254.734
503.310;  200.670; -437.159; -375.713
503.593;  139.101; -464.147; -325.735
503.877;  191.851; -232.133; -156.760
504.161;  269.737;    2.847;  -50.724
504.444;   90.187; -841.158; -710.716
504.728;  587.118; -487.164; -522.704
505.012;  953.566; -257.150;  -76.729
505.295;  716.555; -417.161; -212.711
505.579;  713.409; -256.156; -496.719
505.862;  968.720; -555.145; -333.738
506.146;  946.273; -681.159; -758.714
506.429;  639.574;  568.841;  461.286
506.713;   45.462; -732.151; -667.728
506.996;  443.924;   90.846;  295.278
507.280;  406.912; -633.165; -474.703
507.563;  296.516; -469.155; -261.721
507.847;  119.135; -423.153; -112.724
508.130;   59.456; -665.161; -456.711
508.413;  139.989; -758.167; -577.700
508.697;  355.189; -151.167;   12.300
508.980;  180.436; -422.153; -312.724
509.263;  -78.388; -466.155; -450.720
509.547;   60.965; -124.150;   82.271
509.830;   66.459; -172.160;  140.289
510.113;  157.608;  128.844;  298.281
510.396;   15.943; -530.152; -300.725
510.680;  165.122; -818.145; -812.738
510.963;  796.330;  184.846;  180.277
511.246;  634.875; -493.150; -357.730
511.529;  333.828; -482.145;  -83.739
511.812;  503.447; -250.134;   10.241
512.095;  310.658; -740.151; -396.728
512.378;   92.406; -317.147; -245.736
512.661;  -29.290; -703.137; -623.753
512.944;  -42.644; -750.142; -637.744
513.227;   47.507; -170.137; -171.752
513.510;    5.138; -479.144; -671.741
513.793;   -2.223; -485.140; -435.747
514.076;  192.320;  -43.127;  -39.771
514.359;  124.086; -294.149; -135.732
514.642;   61.360; -442.142; -567.744
514.925; 1100.475;  581.860;  561.253
515.208; 1276.142; -498.134; -443.758
515.491;  875.259; -276.133; -182.761
515.773;  473.143; -410.143; -337.742
516.056; 2879.818;  249.864;  409.246
516.339; 3760.223; -754.136; -652.755
516.622; 2516.572; -518.150; -488.730
516.904; 1761.252;  882.857;  975.257
517.187;  695.005; -730.138; -523.752
517.470;  476.050; -568.143; -510.743
517.752;  499.827; -624.136; -470.756
518.035;  425.890; -708.139; -725.749
518.318;  390.523; -799.136; -744.755
518.600; 3282.264; -300.132; -325.762
518.883; 4394.359;  310.858;   88.256
519.165; 2191.796; -585.138; -426.751
519.448;  525.163;  -61.132;  -19.762
519.730;  226.629; -573.126; -415.773
520.013;  501.754;  588.867;  664.240
520.295; 1086.949;  -94.134;  -15.759
520.578; 2292.579; -335.131; -305.764
520.860; 2655.463; -254.132;   56.238
521.143; 1350.029; -763.135; -584.756
521.425;  626.645; -251.125; -279.775
521.707;  830.221; -622.127; -380.771
521.990; 2468.421; -199.127;  167.229
522.272; 2675.779; -116.140;   -4.748
522.554; 1222.144; -237.143; -157.742
522.836;  416.846;  -24.134;   99.241
523.119;  263.797; -496.148; -189.734
523.401;  152.788; -448.130; -314.766
523.683;   75.811; -865.137; -693.753
523.965;  384.203;  408.862;  260.248
524.247;  379.672;   54.878;  170.220
524.529;  217.748; -451.134; -367.759
524.812;  471.690;   -3.130;  191.234
525.094; 1080.202; -773.138; -631.751
525.376; 1782.457; -143.124;   78.223
525.658; 1087.220; -441.136; -339.754
525.940;  -14.825; -805.131; -671.764
526.222;   37.424; -188.136;  -88.755
526.504;  172.073; -190.131;   32.237
526.786;  139.752; -960.133; -647.760
527.068;  368.263; -124.123;  -67.778
527.349;   60.016; -865.137; -774.754
527.631;  153.063; -137.132;   22.238
527.913;  136.920; -664.127; -450.771
528.195;  135.637; -761.125; -639.774
528.477;  336.442;  -93.134;  -30.758
528.759;  128.190; -648.130; -522.766
529.040;   55.962; -569.123; -293.778
529.322;   49.840; -235.125;  -10.774
529.604;  162.693;  -47.130;   93.233
529.886;  164.129; -546.126; -302.773
530.167;  174.882;  232.870;  192.235
530.449;   86.305;    1.853;   63.265
530.731;   -9.229; -572.122; -459.779
531.012;   40.396; -513.120; -216.784
531.294;   77.645; -118.116;  -43.792
531.575;  268.145;  290.875;  538.225
531.857;    4.536; -548.135; -266.757
532.138;  212.470; -113.141;   40.254
532.420;  257.431;  294.865;  403.244
532.701;  205.055; -722.133; -751.760
532.983;  456.958;  232.867;  182.239
533.264;  141.427; -243.126;  175.228
533.546;  -78.276; -491.136; -508.755
533.827;   88.950;  173.867;   -1.759
534.109;   11.236; -352.135;  -80.757
534.390;   57.768; -725.132; -582.762
534.671;  285.931; -270.135;  -82.756
534.953;  123.065; -751.123; -611.779
535.234;    5.026; -426.117; -255.789
535.515; -141.693; -891.119; -735.785
535.796;  -55.485; -431.128; -193.770
536.078; -229.044;-1050.124; -904.777
536.359;  -10.834;  -22.123;    3.221
536.640;  -36.861; -480.125; -197.774
536.921;  226.199;  225.871;  143.232
537.202;  479.798;  -87.138;  -16.751
537.483;  632.179;  251.869;  377.236
537.764;  287.883;   17.870;   98.235
538.045; -112.559; -543.134; -371.758
538.326;  -82.399; -596.129; -447.768
538.607;  -39.978; -686.127; -476.771
538.888;  266.885;   98.879;    5.218
