
Integration time [ms]: 100.000
Averaging Nr. [scans]: 40
Smoothing Nr. [pixels]: 0
Data measured with spectrometer [name]: 2101013U2
Wave   ;Sample   ;Dark     ;Reference
[nm]   ;[counts] ;[counts] ;[counts] 

394.013;   67.255; -450.257; -315.536
394.305;  272.728; -461.258; -419.536
394.596; 1151.447; -676.269; -527.514
394.887; 2731.364; -796.268; -654.518
395.178; 1001.570;  145.736;   11.476
395.470;   96.007; -210.263; -356.526
395.761;  220.079;  305.734;  394.479
396.052;  409.243; -545.284; -306.489
396.343;  404.665; -557.276; -454.503
396.634;  128.758; -200.279; -290.497
396.926;  152.861; -618.268; -565.517
397.217;  130.694;   11.725;  -17.504
397.508;   65.611; -366.273; -154.507
397.799;   68.208; -555.279; -571.497
398.090;    6.627; -973.280; -902.495
398.381;  142.066;   11.708;  -11.473
398.672;    0.242; -585.292; -742.473
398.963;   67.789; -348.279; -373.498
399.254;  115.976;   54.709; -209.475
399.545;   -0.474;-1017.266; -883.520
399.836;   80.128; -407.277; -343.501
400.127;   73.766; -205.295; -209.468
400.418;   74.180; -423.274; -392.506
400.709;   72.213; -359.281; -333.493
401.000;   70.730; -268.291; -309.476
401.290;  114.301;  225.698;  115.545
401.581;   67.650; -166.286; -228.485
401.872;   40.287; -542.298; -486.462
402.163;   49.159; -313.296; -252.467
402.454;   94.152; -123.291; -163.475
402.744;  103.225; -844.297; -813.465
403.035;  486.532; -226.293;  -86.471
403.326;  623.270; -366.292; -384.474
403.617;  405.457;  204.701;  165.539
403.907;  266.274; -593.283; -679.490
404.198; 2385.004; -545.307; -599.446
404.489; 6254.604; -618.283; -588.491
404.779; 2087.630; -618.302; -660.456
405.070;  234.532;  -67.304; -174.451
405.360;  339.534; -259.293; -238.472
405.651;  375.566;  125.699;   98.542
405.942;  198.395;  209.714;  127.516
406.232;  320.285; -432.285; -413.487
406.523;  531.501;  641.706;  758.530
406.813;  120.422; -579.286; -644.484
407.104;  382.115;  261.708;  144.527
407.394;  226.408; -604.299; -591.462
407.685;  176.234;  336.715;  222.513
407.975;   70.802; -400.283; -382.490
408.265;  130.392; -134.289; -190.478
408.556;   75.799; -472.291; -459.475
408.846;  168.627;  474.706;  429.530
409.137;   84.000;   -1.288; -216.480
409.427;   62.510; -193.285; -271.487
409.717;   40.539; -776.273; -692.508
410.007;  148.803;    4.715; -170.486
410.298;  101.019; -360.295; -342.469
410.588;   72.582; -495.285; -510.486
410.878;   48.937; -792.287; -873.482
411.168;  126.365; -481.298; -478.463
411.459;  130.922; -295.283; -242.489
411.749;   77.572; -609.292; -507.474
412.039;   62.099; -755.289; -386.480
412.329;  224.221;   40.722;  132.501
412.619;  220.173;  -62.286; -148.485
412.909;  378.495;  639.711;  594.521
413.199;  362.077; -130.280; -251.495
413.490;  413.160;  521.710;  352.523
413.780;  152.956;-1013.279; -913.496
414.070;  361.191;  -46.276;  235.497
414.360;  405.517; -729.278; -666.498
414.650;  453.583; -726.288; -688.482
414.940;  548.480; -538.280; -441.496
415.230;  925.855;   50.712;   74.519
415.520; 6081.746;  155.730;   66.486
415.809;24304.938; -305.281; -125.493
416.099;18265.956; -388.277; -229.501
416.389; 5080.678;  435.726;  236.494
416.679; 2948.110;   91.738;   85.473
416.969;  536.791; -527.287; -503.483
417.259;  478.058;  341.721;  171.503
417.549;  709.312;  522.718;  318.508
417.838; 1650.888; -205.268; -147.518
418.128; 5469.740;  650.710;  492.522
418.418; 4470.121; -491.272; -579.509
418.708; 3064.103;    9.726;  -48.506
418.997;11578.849; -474.275; -480.505
419.287;11770.310; -733.273; -790.507
419.577;11135.196; -160.283; -123.489
419.866;37309.254; -588.277; -498.501
420.156;38182.717; -242.270;  -55.513
420.446; 6736.378; -112.263;  -26.526
420.735;  916.286; -376.271; -446.512
421.025;  841.666; 1830.722;  315.502
421.314;  734.859; -203.271; -226.512
421.604; 1591.031;   89.732;  233.484
421.893;  930.330; -705.271; -602.511
422.183;  243.978; -487.263; -461.526
422.472;  399.431;  -36.271; -107.511
422.762;  487.107; -416.266; -379.521
423.051;  269.691; -916.276; -916.503
423.341;  347.837; -491.273; -439.507
423.630;  464.763; -121.265;   15.477
423.919;  413.023;   58.725;   49.495
424.209;  389.434;  -31.263;   56.473
424.498;  496.336;   68.732;  161.483
424.787; 1117.892; -535.267; -601.518
425.077; 3391.961;   34.735;   29.478
425.366; 4844.639; -734.262; -744.528
425.655; 9700.162;  639.727;  259.493
425.945;20841.022; -313.247; -268.554
426.234;11353.113;  117.741;  300.467
426.523; 5071.568;  -86.259; -350.534
426.812; 6928.627;  107.734;  159.480
427.101;10185.777; -127.269; -323.515
427.390;12805.071;  -55.270;  -86.514
427.680; 2980.513; -624.257; -411.538
427.969;  500.799; -330.255; -301.540
428.258;  338.805; -385.257; -477.536
428.547;  581.925;  449.728;  397.490
428.836; 1376.766; -421.253; -398.543
429.125; 1967.170; -199.259;  -72.534
429.414;  854.239; -330.251; -294.548
429.703; 3105.139; -231.251; -213.548
429.992; 9350.768; -938.250; -828.549
430.281; 6003.671; -397.264; -331.524
430.570;  611.755;  -21.252;   32.454
430.859;  616.492;  279.741;  352.466
431.148;  466.543;  636.752;  631.446
431.437;  316.254;  391.748;  367.454
431.725;  162.656; -544.257; -481.536
432.014;  153.674; -845.253; -756.545
432.303;  418.221; -149.239; -105.569
432.592;  684.052; -460.263; -178.525
432.881; 1058.669; -601.248; -437.554
433.169; 6105.500; -343.255;  -61.540
433.458;12407.255;  445.765;  540.424
433.747; 5142.670; -397.261; -289.529
434.036;  918.896; -275.242; -280.564
434.324; 2121.681; -395.249; -379.551
434.613; 3618.814;   40.757;  159.437
434.902; 1210.610;  333.760;  439.433
435.190;  655.169;   75.761;  295.431
435.479;  363.445;  -52.245;   83.441
435.767;  126.354; -411.244; -427.561
436.056;  237.141; -340.242; -294.563
436.345;  386.188; -372.240; -223.568
436.633;  392.676;   60.750;  383.450
436.922;  278.590;  208.760;  414.432
437.210;  682.845; -194.236;    1.426
437.499; 2211.828; -583.235; -432.576
437.787; 2411.595; -339.236;  -10.574
438.075;  585.525;   56.761;  162.430
438.364;  830.253;  -44.238;  250.429
438.652;  515.285; -286.226; -138.592
438.941;  158.098;    3.770;  269.415
439.229;   34.102; -665.252; -466.545
439.517;   53.237; -160.234;  -85.577
439.806;   12.652; -501.225; -290.595
440.094;  196.345;  377.766;  650.421
440.382;  239.249; -653.233; -302.580
440.670;  249.703; -361.235; -285.576
440.959;   41.294; -347.223; -170.599
441.247;   89.910; -151.229; -109.587
441.535;  119.010; -266.235;   31.423
441.823;   57.617; -497.234; -305.578
442.111;  189.540;  173.771;  327.412
442.400;  586.420; -628.245; -335.559
442.688; 1579.019; -111.234; -620.579
442.976; 1139.185; -786.213; -450.617
443.264;  128.833; -324.224; -364.597
443.552;  112.311; -258.226;   51.408
443.840;  174.634;  602.765;  876.423
444.128;  113.798;  265.767;  269.420
444.416;    2.317; -694.228; -312.588
444.704;   31.300; -465.219;  -92.605
444.992;   80.739;   -0.226;  240.407
445.280;   59.199; -517.230;  -94.585
445.568;   52.588; -694.212; -396.618
445.856;  383.159; -174.221;  357.398
446.143;  872.146;  -54.220;   -7.604
446.431;  705.546;  -25.228;  625.411
446.719;  267.170;  489.783;  675.391
447.007;  181.643;  481.769;  705.416
447.295;  199.666;  597.777;  871.402
447.583;  101.883; -464.229;  -34.587
447.870;  164.680; -434.221; -202.601
448.158;  471.373; -104.230;  129.415
448.446;  341.472; -800.219; -338.604
448.733;  196.860;   13.776;  269.403
449.021;  278.913;   60.788;  341.382
449.309;  195.178; -296.210;  208.379
449.596;  216.741;  128.783;   59.392
449.884;  161.549; -571.222; -325.600
450.172;  160.226; -756.227; -406.590
450.459;  430.492;  645.786;  780.387
450.747; 2298.239; -411.218; -147.608
451.034; 7438.047;  493.772;  889.411
451.322; 5993.321; -413.214; -170.614
451.609;  502.611;  292.777;  508.403
451.897;  603.418; -550.203; -183.634
452.184; 1815.142; -622.223; -400.598
452.472; 1633.900;   97.792;  269.375
452.759;  354.298;  512.781;  864.395
453.047;  137.085; -407.212; -125.617
453.334;  101.706; -732.219; -216.606
453.621;   97.423; -438.214; -161.615
453.909;  130.060;   13.796;  384.368
454.196;  113.781; -299.199; -123.641
454.483;  229.481;  317.798;  540.364
454.771;  149.403; -215.208;  196.374
455.058;   56.307; -316.207;  102.374
455.345;  110.813;   71.807;  344.347
455.632;   89.485; -128.207;  235.373
455.919;   47.929;  -82.196;  182.354
456.207;  -49.089; -774.198; -450.642
456.494;   -1.731; -475.200;  -66.639
456.781;   20.027; -399.202; -198.635
457.068;   78.817; -253.206;  -29.628
457.355;   11.993; -698.206; -401.629
457.642;   -6.051; -552.205; -290.630
457.929;   21.454; -778.194; -417.651
458.216;   52.111; -575.212; -354.617
458.503;  231.334; -173.193;  -19.652
458.790;  238.301; -864.208; -630.625
459.077;  294.882;  -77.202;  110.364
459.364;  774.272; -350.195; -210.649
459.651; 1669.915;  -46.206;  220.372
459.938;  766.616; -864.209; -665.623
460.225;  154.960;  132.799;  276.363
460.512;  -27.398; -836.197; -688.645
460.799;  112.563;  -32.218;  320.392
461.086;   74.898; -370.200; -251.640
461.372;   59.686; -509.198; -279.642
461.659;  116.606; -165.196;  108.354
461.946;   68.257; -445.193;  -54.651
462.233;  259.796;  842.800;  888.361
462.519;  348.568; -814.201; -464.639
462.806; 1001.377; -768.197; -497.645
463.093;  882.303; -445.191;  -66.656
463.380;   -4.429; -920.186; -824.664
463.666;   65.579; -259.197;  -18.646
463.953;   97.266; -406.195; -243.648
464.239;  213.091; -173.195;  -77.648
464.526;  396.202;  413.806;  743.350
464.813;  394.840; -565.190; -304.658
465.099;  372.008;  606.807;  607.348
465.386;  356.962;  903.807;  921.348
465.672;   50.302; -694.197; -522.645
465.959;   49.434; -598.188; -520.662
466.245;   23.987; -468.193; -359.652
466.532;  123.164; -109.195;   63.352
466.818;   82.896; -357.186; -216.664
467.104;   15.062; -488.182; -415.672
467.391;  -14.558; -628.189; -459.658
467.677;   48.249; -289.186;    9.335
467.964;   15.874; -682.189; -471.660
468.250;   95.202; -331.186; -160.665
468.536;   79.894;   90.811;  180.341
468.822;  -25.686; -821.184; -574.668
469.109;  132.370;  351.827;  471.311
469.395;  194.572;  729.808;  787.346
469.681;  205.747;   46.811;  156.341
469.967; 1244.926; -699.188; -382.660
470.254; 2687.935; -494.188; -306.662
470.540; 1669.304; -601.196; -476.646
470.826;  249.998; -488.181; -397.675
471.112;  298.343;  288.816;  113.331
471.398;   86.023; -253.183;  -58.670
471.684;   54.677; -626.177; -447.680
471.970;    2.577; -918.180; -981.675
472.256;   42.071; -521.192; -441.654
472.542;   19.856; -499.171; -434.691
472.828;   34.233; -743.182; -607.672
473.114;   46.676; -380.166; -283.700
473.400;   39.319; -504.175; -293.684
473.686;   34.757; -452.166; -400.701
473.972;   64.659; -230.174; -131.687
474.258;  -46.855; -925.173; -843.689
474.544;  197.694; -183.178;   -2.679
474.830;  289.421;  -65.175;   45.316
475.116;  474.767; -123.190; -196.658
475.401;  630.654; -558.180; -467.676
475.687;  212.253; -725.180; -718.676
475.973;   21.466; -673.181; -770.673
476.259;  253.948;  736.825;  764.315
476.544;  365.510; -539.176; -437.682
476.830;  826.102; -398.172; -322.690
477.116;  656.334; -430.177; -336.682
477.401;  143.079;  346.820;  358.324
477.687;  -19.656; -289.175; -405.684
477.973;   39.144;   21.819;   28.326
478.258;    2.753; -448.163; -348.706
478.544;   67.482;   21.815;   61.334
478.829;  -48.038; -818.171; -738.692
479.115;  -33.448; -749.172; -651.690
479.401;   -5.870; -444.174; -449.686
479.686;   37.803; -253.180;  -74.676
479.972;  -22.701; -886.178; -776.680
480.257;   45.927; -258.166;  -65.700
480.542;   -0.109; -614.170; -469.693
480.828;  238.843; 1288.824; 1392.317
481.113;  -30.185; -464.176; -426.683
481.399;    8.503; -236.161; -202.711
481.684;  -53.698; -620.166; -462.700
481.969;   23.616; -158.159;  -73.713
482.255;   14.477; -439.169; -285.695
482.540;   14.674; -569.178; -441.680
482.825;    6.516; -395.187; -404.663
483.110;  112.605;  -85.169; -105.696
483.396;  186.114; -840.157; -652.718
483.681;  483.559;  543.826;  730.313
483.966;  143.910; -696.160; -700.712
484.251;    7.158; -404.174; -310.687
484.536;   -3.187; -356.165; -378.703
484.822;   18.336; -205.173; -218.687
485.107;  -19.272; -599.152; -502.726
485.392;  127.168;  662.836;  541.296
485.677;   74.315;  354.832;  163.302
485.962;  100.086;  160.843;  270.283
486.247;   89.561;  -14.162;   -8.707
486.532;   45.353; -178.166; -325.701
486.817;  157.772;  381.839;  431.291
487.102;  137.510; -453.154; -514.722
487.387;  652.890; -637.156; -652.718
487.672; 1125.874; -154.164;  -38.705
487.957;  680.604; -394.160; -286.711
488.241;  209.920; -290.150; -314.729
488.526;  696.904; -280.152; -148.726
488.811; 1166.701; -881.177; -818.680
489.096;  854.738; -666.154; -702.723
489.381;  493.775;    3.847;  162.275
489.666;  374.027; -428.161; -510.710
489.950;  164.166;  558.846;  627.277
490.235;  -27.360; -480.151; -458.728
490.520;  -31.474; -756.161; -723.710
490.804;  -36.158; -827.156; -736.719
491.089;   14.786; -469.149; -299.732
491.374;   23.772; -132.164;  -75.704
491.658;   12.098; -817.147; -717.735
491.943;  196.833; -657.152; -609.727
492.227;  293.531; -178.155;  -38.721
492.512;   45.836; -294.157; -341.717
492.797;  -62.545; -713.149; -716.731
493.081;  -52.074; -588.147; -598.735
493.366;  -39.397; -751.161; -635.711
493.650;  192.605;  831.859;  917.254
493.935;   39.872; -648.147; -447.734
494.219;  -27.458; -778.142; -687.743
494.503;  -40.900; -585.150; -487.730
494.788;   44.977;   46.842;   74.285
495.072;   92.271;  184.850;  434.271
495.356;  159.589; -463.148; -343.733
495.641;  461.682; -812.146; -736.736
495.925;  463.998; -976.156; -903.719
496.209;   37.510; -599.149; -451.732
496.494;  -39.957; -763.142; -544.744
496.778;   24.335; -364.154; -360.722
497.062;  -53.778; -819.156; -627.719
497.346;  -31.594; -869.160; -640.711
497.631;  133.568;  580.852;  560.266
497.915;   65.493;  -64.145;  175.261
498.199;   55.189; -341.157; -277.718
498.483;   66.477; -562.152; -508.725
498.767;  188.297;  301.850;  300.271
499.051;  178.083; -126.149; -100.732
499.335;   20.406; -693.149; -739.731
499.619;  -15.391; -381.129; -423.767
499.903;   27.305; -272.155;  -65.721
500.187;   48.643; -588.153; -316.724
500.471;   33.683; -796.152; -595.727
500.755;  121.802;   62.839;  -96.710
501.039;   24.180; -270.155; -357.721
501.323;  109.757;  -21.141;  264.254
501.607;   48.579; -447.163; -503.706
501.891;   10.815; -607.156; -512.718
502.174;  -28.645; -726.144; -585.741
502.458;   87.287;   89.849;  370.273
502.742;   41.657; -180.138; -191.751
503.026;  116.522; -412.147; -254.734
503.310;  163.665; -437.159; -375.713
503.593;  133.073; -464.147; -325.735
503.877;  125.998; -232.133; -156.760
504.161;  210.170;    2.847;  -50.724
504.444;  141.554; -841.158; -710.716
504.728;  457.246; -487.164; -522.704
505.012;  687.069; -257.150;  -76.729
505.295;  517.703; -417.161; -212.711
505.579;  527.822; -256.156; -496.719
505.862;  725.989; -555.145; -333.738
506.146;  674.618; -681.159; -758.714
506.429;  391.818;  568.841;  461.286
506.713;   69.641; -732.151; -667.728
506.996;  301.685;   90.846;  295.278
507.280;  329.492; -633.165; -474.703
507.563;  233.253; -469.155; -261.721
507.847;   87.693; -423.153; -112.724
508.130;   99.228; -665.161; -456.711
508.413;  104.598; -758.167; -577.700
508.697;  237.023; -151.167;   12.300
508.980;  141.520; -422.153; -312.724
509.263;    3.524; -466.155; -450.720
509.547;   34.369; -124.150;   82.271
509.830;   54.531; -172.160;  140.289
510.113;   95.422;  128.844;  298.281
510.396;   58.851; -530.152; -300.725
510.680;  185.841; -818.145; -812.738
510.963;  706.364;  184.846;  180.277
511.246;  615.602; -493.150; -357.730
511.529;  267.246; -482.145;  -83.739
511.812;  367.769; -250.134;   10.241
512.095;  258.688; -740.151; -396.728
512.378;   62.553; -317.147; -245.736
512.661;   37.064; -703.137; -623.753
512.944;   33.544; -750.142; -637.744
513.227;   60.261; -170.137; -171.752
513.510;   25.405; -479.144; -671.741
513.793;   47.861; -485.140; -435.747
514.076;  121.580;  -43.127;  -39.771
514.359;  106.686; -294.149; -135.732
514.642;   75.647; -442.142; -567.744
514.925;  722.210;  581.860;  561.253
515.208;  952.841; -498.134; -443.758
515.491;  630.805; -276.133; -182.761
515.773;  361.833; -410.143; -337.742
516.056; 2000.221;  249.864;  409.246
516.339; 2715.550; -754.136; -652.755
516.622; 1963.874; -518.150; -488.730
516.904; 1388.516;  882.857;  975.257
517.187;  656.360; -730.138; -523.752
517.470;  406.164; -568.143; -510.743
517.752;  427.503; -624.136; -470.756
518.035;  334.347; -708.139; -725.749
518.318;  354.300; -799.136; -744.755
518.600; 2297.408; -300.132; -325.762
518.883; 3148.272;  310.858;   88.256
519.165; 1515.103; -585.138; -426.751
519.448;  396.708;  -61.132;  -19.762
519.730;  206.838; -573.126; -415.773
520.013;  323.526;  588.867;  664.240
520.295;  944.546;  -94.134;  -15.759
520.578; 2085.371; -335.131; -305.764
520.860; 2330.783; -254.132;   56.238
521.143; 1205.655; -763.135; -584.756
521.425;  486.426; -251.125; -279.775
521.707;  674.306; -622.127; -380.771
521.990; 1710.931; -199.127;  167.229
522.272; 1930.213; -116.140;   -4.748
522.554;  876.159; -237.143; -157.742
522.836;  395.719;  -24.134;   99.241
523.119;  233.895; -496.148; -189.734
523.401;  173.979; -448.130; -314.766
523.683;   93.265; -865.137; -693.753
523.965;  271.858;  408.862;  260.248
524.247;  264.673;   54.878;  170.220
524.529;  216.796; -451.134; -367.759
524.812;  368.480;   -3.130;  191.234
525.094;  813.432; -773.138; -631.751
525.376; 1320.836; -143.124;   78.223
525.658;  782.847; -441.136; -339.754
525.940;   14.268; -805.131; -671.764
526.222;   53.426; -188.136;  -88.755
526.504;  121.641; -190.131;   32.237
526.786;  223.149; -960.133; -647.760
527.068;  347.266; -124.123;  -67.778
527.349;  159.919; -865.137; -774.754
527.631;  141.583; -137.132;   22.238
527.913;  122.255; -664.127; -450.771
528.195;  156.394; -761.125; -639.774
528.477;  245.291;  -93.134;  -30.758
528.759;  125.905; -648.130; -522.766
529.040;   60.315; -569.123; -293.778
529.322;   42.997; -235.125;  -10.774
529.604;  152.458;  -47.130;   93.233
529.886;  132.513; -546.126; -302.773
530.167;  132.574;  232.870;  192.235
530.449;   45.627;    1.853;   63.265
530.731;   37.772; -572.122; -459.779
531.012;   61.144; -513.120; -216.784
531.294;   76.084; -118.116;  -43.792
531.575;  134.801;  290.875;  538.225
531.857;   42.336; -548.135; -266.757
532.138;  103.630; -113.141;   40.254
532.420;  199.607;  294.865;  403.244
532.701;  250.926; -722.133; -751.760
532.983;  368.929;  232.867;  182.239
533.264;  138.861; -243.126;  175.228
533.546;  -28.674; -491.136; -508.755
533.827;   39.897;  173.867;   -1.759
534.109;   60.635; -352.135;  -80.757
534.390;   97.662; -725.132; -582.762
534.671;  267.981; -270.135;  -82.756
534.953;  149.193; -751.123; -611.779
535.234;   36.918; -426.117; -255.789
535.515;  -81.423; -891.119; -735.785
535.796;   -7.774; -431.128; -193.770
536.078; -100.315;-1050.124; -904.777
536.359;   25.244;  -22.123;    3.221
536.640;  -14.629; -480.125; -197.774
536.921;  166.588;  225.871;  143.232
537.202;  368.654;  -87.138;  -16.751
537.483;  443.821;  251.869;  377.236
537.764;  156.149;   17.870;   98.235
538.045;  -35.560; -543.134; -371.758
538.326;  -21.560; -596.129; -447.768
538.607;   16.582; -686.127; -476.771
538.888;  159.559;   98.879;    5.218
