
Integration time [ms]: 100.000
Averaging Nr. [scans]: 40
Smoothing Nr. [pixels]: 0
Data measured with spectrometer [name]: 2101013U2
Wave   ;Sample   ;Dark     ;Reference
[nm]   ;[counts] ;[counts] ;[counts] 

394.013;   49.918; -450.257; -315.536
394.305;  211.041; -461.258; -419.536
394.596; 1106.438; -676.269; -527.514
394.887; 2630.655; -796.268; -654.518
395.178; 1028.135;  145.736;   11.476
395.470;   74.522; -210.263; -356.526
395.761;  208.595;  305.734;  394.479
396.052;  318.763; -545.284; -306.489
396.343;  331.708; -557.276; -454.503
396.634;  116.452; -200.279; -290.497
396.926;  141.827; -618.268; -565.517
397.217;  129.162;   11.725;  -17.504
397.508;   60.203; -366.273; -154.507
397.799;   57.502; -555.279; -571.497
398.090;    8.821; -973.280; -902.495
398.381;   88.188;   11.708;  -11.473
398.672;   17.989; -585.292; -742.473
398.963;   37.558; -348.279; -373.498
399.254;  121.998;   54.709; -209.475
399.545;  -23.059;-1017.266; -883.520
399.836;   73.497; -407.277; -343.501
400.127;   67.589; -205.295; -209.468
400.418;   58.498; -423.274; -392.506
400.709;   70.108; -359.281; -333.493
401.000;   47.052; -268.291; -309.476
401.290;  114.326;  225.698;  115.545
401.581;   75.996; -166.286; -228.485
401.872;   33.111; -542.298; -486.462
402.163;   54.082; -313.296; -252.467
402.454;   96.949; -123.291; -163.475
402.744;   78.798; -844.297; -813.465
403.035;  480.704; -226.293;  -86.471
403.326;  629.817; -366.292; -384.474
403.617;  396.380;  204.701;  165.539
403.907;  249.069; -593.283; -679.490
404.198; 2358.680; -545.307; -599.446
404.489; 6208.674; -618.283; -588.491
404.779; 2085.804; -618.302; -660.456
405.070;  238.283;  -67.304; -174.451
405.360;  329.056; -259.293; -238.472
405.651;  369.565;  125.699;   98.542
405.942;  195.466;  209.714;  127.516
406.232;  282.430; -432.285; -413.487
406.523;  503.399;  641.706;  758.530
406.813;  103.918; -579.286; -644.484
407.104;  358.087;  261.708;  144.527
407.394;  196.507; -604.299; -591.462
407.685;  149.330;  336.715;  222.513
407.975;   67.297; -400.283; -382.490
408.265;  124.288; -134.289; -190.478
408.556;   70.096; -472.291; -459.475
408.846;  165.425;  474.706;  429.530
409.137;   88.847;   -1.288; -216.480
409.427;   63.905; -193.285; -271.487
409.717;   48.531; -776.273; -692.508
410.007;  162.899;    4.715; -170.486
410.298;   94.192; -360.295; -342.469
410.588;   83.203; -495.285; -510.486
410.878;   32.583; -792.287; -873.482
411.168;  101.539; -481.298; -478.463
411.459;  134.092; -295.283; -242.489
411.749;   69.969; -609.292; -507.474
412.039;   71.820; -755.289; -386.480
412.329;  212.990;   40.722;  132.501
412.619;  191.293;  -62.286; -148.485
412.909;  372.791;  639.711;  594.521
413.199;  369.746; -130.280; -251.495
413.490;  402.431;  521.710;  352.523
413.780;  152.600;-1013.279; -913.496
414.070;  342.384;  -46.276;  235.497
414.360;  370.086; -729.278; -666.498
414.650;  412.279; -726.288; -688.482
414.940;  532.924; -538.280; -441.496
415.230;  922.101;   50.712;   74.519
415.520; 6020.087;  155.730;   66.486
415.809;23725.933; -305.281; -125.493
416.099;18207.199; -388.277; -229.501
416.389; 5083.920;  435.726;  236.494
416.679; 2979.125;   91.738;   85.473
416.969;  503.662; -527.287; -503.483
417.259;  455.302;  341.721;  171.503
417.549;  697.956;  522.718;  318.508
417.838; 1637.679; -205.268; -147.518
418.128; 5383.737;  650.710;  492.522
418.418; 4494.413; -491.272; -579.509
418.708; 3054.496;    9.726;  -48.506
418.997;11383.416; -474.275; -480.505
419.287;11851.377; -733.273; -790.507
419.577;11161.641; -160.283; -123.489
419.866;36945.397; -588.277; -498.501
420.156;38002.808; -242.270;  -55.513
420.446; 6840.693; -112.263;  -26.526
420.735;  894.027; -376.271; -446.512
421.025;  870.560; 1830.722;  315.502
421.314;  734.100; -203.271; -226.512
421.604; 1552.147;   89.732;  233.484
421.893;  906.522; -705.271; -602.511
422.183;  243.268; -487.263; -461.526
422.472;  391.423;  -36.271; -107.511
422.762;  464.247; -416.266; -379.521
423.051;  250.609; -916.276; -916.503
423.341;  327.554; -491.273; -439.507
423.630;  431.603; -121.265;   15.477
423.919;  388.191;   58.725;   49.495
424.209;  378.048;  -31.263;   56.473
424.498;  487.977;   68.732;  161.483
424.787; 1088.783; -535.267; -601.518
425.077; 3329.602;   34.735;   29.478
425.366; 4820.604; -734.262; -744.528
425.655; 9770.230;  639.727;  259.493
425.945;20829.058; -313.247; -268.554
426.234;11613.877;  117.741;  300.467
426.523; 4985.332;  -86.259; -350.534
426.812; 6857.193;  107.734;  159.480
427.101;10019.818; -127.269; -323.515
427.390;12718.962;  -55.270;  -86.514
427.680; 3032.177; -624.257; -411.538
427.969;  495.362; -330.255; -301.540
428.258;  316.993; -385.257; -477.536
428.547;  561.617;  449.728;  397.490
428.836; 1328.679; -421.253; -398.543
429.125; 1897.559; -199.259;  -72.534
429.414;  835.401; -330.251; -294.548
429.703; 3106.751; -231.251; -213.548
429.992; 9200.305; -938.250; -828.549
430.281; 6016.761; -397.264; -331.524
430.570;  597.342;  -21.252;   32.454
430.859;  582.331;  279.741;  352.466
431.148;  447.454;  636.752;  631.446
431.437;  286.366;  391.748;  367.454
431.725;  159.770; -544.257; -481.536
432.014;  134.636; -845.253; -756.545
432.303;  395.505; -149.239; -105.569
432.592;  625.942; -460.263; -178.525
432.881; 1069.155; -601.248; -437.554
433.169; 6036.463; -343.255;  -61.540
433.458;12329.213;  445.765;  540.424
433.747; 5161.885; -397.261; -289.529
434.036;  936.680; -275.242; -280.564
434.324; 2067.492; -395.249; -379.551
434.613; 3571.799;   40.757;  159.437
434.902; 1196.320;  333.760;  439.433
435.190;  616.653;   75.761;  295.431
435.479;  337.381;  -52.245;   83.441
435.767;  114.664; -411.244; -427.561
436.056;  205.976; -340.242; -294.563
436.345;  382.072; -372.240; -223.568
436.633;  380.638;   60.750;  383.450
436.922;  272.249;  208.760;  414.432
437.210;  659.128; -194.236;    1.426
437.499; 2102.536; -583.235; -432.576
437.787; 2356.003; -339.236;  -10.574
438.075;  589.284;   56.761;  162.430
438.364;  760.737;  -44.238;  250.429
438.652;  491.991; -286.226; -138.592
438.941;  148.305;    3.770;  269.415
439.229;   18.014; -665.252; -466.545
439.517;   35.445; -160.234;  -85.577
439.806;    2.657; -501.225; -290.595
440.094;  187.353;  377.766;  650.421
440.382;  195.006; -653.233; -302.580
440.670;  215.886; -361.235; -285.576
440.959;   38.049; -347.223; -170.599
441.247;   76.967; -151.229; -109.587
441.535;  108.968; -266.235;   31.423
441.823;   40.900; -497.234; -305.578
442.111;  191.771;  173.771;  327.412
442.400;  561.705; -628.245; -335.559
442.688; 1523.602; -111.234; -620.579
442.976; 1106.862; -786.213; -450.617
443.264;  124.089; -324.224; -364.597
443.552;  109.192; -258.226;   51.408
443.840;  177.017;  602.765;  876.423
444.128;  109.130;  265.767;  269.420
444.416;    0.974; -694.228; -312.588
444.704;   26.454; -465.219;  -92.605
444.992;   91.870;   -0.226;  240.407
445.280;   40.131; -517.230;  -94.585
445.568;   62.691; -694.212; -396.618
445.856;  373.938; -174.221;  357.398
446.143;  853.575;  -54.220;   -7.604
446.431;  688.177;  -25.228;  625.411
446.719;  258.698;  489.783;  675.391
447.007;  170.600;  481.769;  705.416
447.295;  196.796;  597.777;  871.402
447.583;  102.064; -464.229;  -34.587
447.870;  164.285; -434.221; -202.601
448.158;  434.530; -104.230;  129.415
448.446;  331.876; -800.219; -338.604
448.733;  178.015;   13.776;  269.403
449.021;  266.590;   60.788;  341.382
449.309;  207.355; -296.210;  208.379
449.596;  229.294;  128.783;   59.392
449.884;  150.878; -571.222; -325.600
450.172;  153.058; -756.227; -406.590
450.459;  433.745;  645.786;  780.387
450.747; 2314.793; -411.218; -147.608
451.034; 7419.303;  493.772;  889.411
451.322; 6080.598; -413.214; -170.614
451.609;  522.767;  292.777;  508.403
451.897;  571.793; -550.203; -183.634
452.184; 1785.222; -622.223; -400.598
452.472; 1674.577;   97.792;  269.375
452.759;  339.502;  512.781;  864.395
453.047;  127.513; -407.212; -125.617
453.334;   89.260; -732.219; -216.606
453.621;   91.101; -438.214; -161.615
453.909;  117.435;   13.796;  384.368
454.196;  120.205; -299.199; -123.641
454.483;  205.181;  317.798;  540.364
454.771;  137.155; -215.208;  196.374
455.058;   42.283; -316.207;  102.374
455.345;  112.111;   71.807;  344.347
455.632;   87.086; -128.207;  235.373
455.919;   47.103;  -82.196;  182.354
456.207;  -59.465; -774.198; -450.642
456.494;   -0.057; -475.200;  -66.639
456.781;    5.652; -399.202; -198.635
457.068;   76.868; -253.206;  -29.628
457.355;   -3.356; -698.206; -401.629
457.642;   -5.201; -552.205; -290.630
457.929;   10.377; -778.194; -417.651
458.216;   62.663; -575.212; -354.617
458.503;  231.506; -173.193;  -19.652
458.790;  222.052; -864.208; -630.625
459.077;  265.482;  -77.202;  110.364
459.364;  798.345; -350.195; -210.649
459.651; 1662.016;  -46.206;  220.372
459.938;  781.718; -864.209; -665.623
460.225;  163.385;  132.799;  276.363
460.512;  -35.350; -836.197; -688.645
460.799;  107.167;  -32.218;  320.392
461.086;   70.948; -370.200; -251.640
461.372;   50.960; -509.198; -279.642
461.659;  127.479; -165.196;  108.354
461.946;   60.730; -445.193;  -54.651
462.233;  243.970;  842.800;  888.361
462.519;  338.317; -814.201; -464.639
462.806;  990.726; -768.197; -497.645
463.093;  872.276; -445.191;  -66.656
463.380;  -24.133; -920.186; -824.664
463.666;   46.677; -259.197;  -18.646
463.953;  111.215; -406.195; -243.648
464.239;  185.939; -173.195;  -77.648
464.526;  400.325;  413.806;  743.350
464.813;  360.587; -565.190; -304.658
465.099;  366.406;  606.807;  607.348
465.386;  335.335;  903.807;  921.348
465.672;   33.976; -694.197; -522.645
465.959;   15.505; -598.188; -520.662
466.245;    3.060; -468.193; -359.652
466.532;   89.437; -109.195;   63.352
466.818;   78.217; -357.186; -216.664
467.104;   20.132; -488.182; -415.672
467.391;   -7.011; -628.189; -459.658
467.677;   42.945; -289.186;    9.335
467.964;    4.521; -682.189; -471.660
468.250;   57.298; -331.186; -160.665
468.536;   84.365;   90.811;  180.341
468.822;  -31.690; -821.184; -574.668
469.109;  143.262;  351.827;  471.311
469.395;  188.445;  729.808;  787.346
469.681;  199.618;   46.811;  156.341
469.967; 1214.348; -699.188; -382.660
470.254; 2621.031; -494.188; -306.662
470.540; 1693.128; -601.196; -476.646
470.826;  246.993; -488.181; -397.675
471.112;  306.063;  288.816;  113.331
471.398;   91.743; -253.183;  -58.670
471.684;   39.696; -626.177; -447.680
471.970;    7.372; -918.180; -981.675
472.256;   25.719; -521.192; -441.654
472.542;   15.723; -499.171; -434.691
472.828;    9.453; -743.182; -607.672
473.114;   25.292; -380.166; -283.700
473.400;   12.538; -504.175; -293.684
473.686;   44.448; -452.166; -400.701
473.972;   59.952; -230.174; -131.687
474.258;  -42.863; -925.173; -843.689
474.544;  198.063; -183.178;   -2.679
474.830;  310.514;  -65.175;   45.316
475.116;  456.689; -123.190; -196.658
475.401;  624.574; -558.180; -467.676
475.687;  183.873; -725.180; -718.676
475.973;   17.511; -673.181; -770.673
476.259;  237.641;  736.825;  764.315
476.544;  362.604; -539.176; -437.682
476.830;  808.219; -398.172; -322.690
477.116;  675.828; -430.177; -336.682
477.401;  133.973;  346.820;  358.324
477.687;   -9.387; -289.175; -405.684
477.973;   40.689;   21.819;   28.326
478.258;  -12.007; -448.163; -348.706
478.544;   55.128;   21.815;   61.334
478.829;  -44.721; -818.171; -738.692
479.115;  -45.006; -749.172; -651.690
479.401;  -14.377; -444.174; -449.686
479.686;   36.672; -253.180;  -74.676
479.972;  -33.607; -886.178; -776.680
480.257;   37.668; -258.166;  -65.700
480.542;   -0.617; -614.170; -469.693
480.828;  229.036; 1288.824; 1392.317
481.113;  -34.616; -464.176; -426.683
481.399;   -5.508; -236.161; -202.711
481.684;  -50.082; -620.166; -462.700
481.969;   26.756; -158.159;  -73.713
482.255;    1.168; -439.169; -285.695
482.540;    3.718; -569.178; -441.680
482.825;    3.762; -395.187; -404.663
483.110;   89.147;  -85.169; -105.696
483.396;  171.727; -840.157; -652.718
483.681;  481.377;  543.826;  730.313
483.966;  151.975; -696.160; -700.712
484.251;    7.676; -404.174; -310.687
484.536;   -7.172; -356.165; -378.703
484.822;   12.629; -205.173; -218.687
485.107;  -35.435; -599.152; -502.726
485.392;  118.084;  662.836;  541.296
485.677;   93.431;  354.832;  163.302
485.962;   97.700;  160.843;  270.283
486.247;   97.526;  -14.162;   -8.707
486.532;   50.219; -178.166; -325.701
486.817;  144.762;  381.839;  431.291
487.102;  115.123; -453.154; -514.722
487.387;  643.679; -637.156; -652.718
487.672; 1111.889; -154.164;  -38.705
487.957;  705.494; -394.160; -286.711
488.241;  179.607; -290.150; -314.729
488.526;  695.317; -280.152; -148.726
488.811; 1146.545; -881.177; -818.680
489.096;  851.501; -666.154; -702.723
489.381;  495.138;    3.847;  162.275
489.666;  350.367; -428.161; -510.710
489.950;  166.204;  558.846;  627.277
490.235;  -30.423; -480.151; -458.728
490.520;  -48.309; -756.161; -723.710
490.804;  -48.394; -827.156; -736.719
491.089;  -10.127; -469.149; -299.732
491.374;   36.663; -132.164;  -75.704
491.658;    1.909; -817.147; -717.735
491.943;  172.271; -657.152; -609.727
492.227;  261.219; -178.155;  -38.721
492.512;   57.649; -294.157; -341.717
492.797;  -59.733; -713.149; -716.731
493.081;  -48.638; -588.147; -598.735
493.366;  -39.282; -751.161; -635.711
493.650;  224.190;  831.859;  917.254
493.935;   41.809; -648.147; -447.734
494.219;  -40.023; -778.142; -687.743
494.503;  -40.938; -585.150; -487.730
494.788;   35.291;   46.842;   74.285
495.072;  104.383;  184.850;  434.271
495.356;  179.976; -463.148; -343.733
495.641;  461.743; -812.146; -736.736
495.925;  441.861; -976.156; -903.719
496.209;   57.347; -599.149; -451.732
496.494;  -43.772; -763.142; -544.744
496.778;    7.873; -364.154; -360.722
497.062;  -56.289; -819.156; -627.719
497.346;  -44.779; -869.160; -640.711
497.631;  146.954;  580.852;  560.266
497.915;   65.454;  -64.145;  175.261
498.199;   48.702; -341.157; -277.718
498.483;   45.090; -562.152; -508.725
498.767;  176.759;  301.850;  300.271
499.051;  195.270; -126.149; -100.732
499.335;   24.918; -693.149; -739.731
499.619;  -28.634; -381.129; -423.767
499.903;   28.893; -272.155;  -65.721
500.187;   25.856; -588.153; -316.724
500.471;   28.770; -796.152; -595.727
500.755;  107.841;   62.839;  -96.710
501.039;   27.468; -270.155; -357.721
501.323;   84.742;  -21.141;  264.254
501.607;   34.269; -447.163; -503.706
501.891;   -2.021; -607.156; -512.718
502.174;  -24.285; -726.144; -585.741
502.458;   90.349;   89.849;  370.273
502.742;   40.791; -180.138; -191.751
503.026;   92.558; -412.147; -254.734
503.310;  167.480; -437.159; -375.713
503.593;  112.760; -464.147; -325.735
503.877;  121.706; -232.133; -156.760
504.161;  176.808;    2.847;  -50.724
504.444;  136.118; -841.158; -710.716
504.728;  440.287; -487.164; -522.704
505.012;  692.431; -257.150;  -76.729
505.295;  524.242; -417.161; -212.711
505.579;  509.285; -256.156; -496.719
505.862;  731.000; -555.145; -333.738
506.146;  700.282; -681.159; -758.714
506.429;  396.882;  568.841;  461.286
506.713;   75.278; -732.151; -667.728
506.996;  314.798;   90.846;  295.278
507.280;  326.982; -633.165; -474.703
507.563;  226.066; -469.155; -261.721
507.847;  104.956; -423.153; -112.724
508.130;   94.568; -665.161; -456.711
508.413;  106.789; -758.167; -577.700
508.697;  242.614; -151.167;   12.300
508.980;  155.658; -422.153; -312.724
509.263;   -1.787; -466.155; -450.720
509.547;   39.231; -124.150;   82.271
509.830;   48.645; -172.160;  140.289
510.113;   82.810;  128.844;  298.281
510.396;   37.138; -530.152; -300.725
510.680;  175.627; -818.145; -812.738
510.963;  710.852;  184.846;  180.277
511.246;  606.339; -493.150; -357.730
511.529;  266.332; -482.145;  -83.739
511.812;  375.902; -250.134;   10.241
512.095;  262.001; -740.151; -396.728
512.378;   76.739; -317.147; -245.736
512.661;   19.373; -703.137; -623.753
512.944;   28.579; -750.142; -637.744
513.227;   71.670; -170.137; -171.752
513.510;   39.490; -479.144; -671.741
513.793;   45.396; -485.140; -435.747
514.076;  137.337;  -43.127;  -39.771
514.359;  114.548; -294.149; -135.732
514.642;   82.232; -442.142; -567.744
514.925;  726.494;  581.860;  561.253
515.208;  974.849; -498.134; -443.758
515.491;  616.713; -276.133; -182.761
515.773;  350.169; -410.143; -337.742
516.056; 2002.705;  249.864;  409.246
516.339; 2754.958; -754.136; -652.755
516.622; 1932.811; -518.150; -488.730
516.904; 1353.751;  882.857;  975.257
517.187;  624.869; -730.138; -523.752
517.470;  419.625; -568.143; -510.743
517.752;  424.961; -624.136; -470.756
518.035;  329.057; -708.139; -725.749
518.318;  339.934; -799.136; -744.755
518.600; 2307.616; -300.132; -325.762
518.883; 3208.707;  310.858;   88.256
519.165; 1541.137; -585.138; -426.751
519.448;  399.241;  -61.132;  -19.762
519.730;  207.069; -573.126; -415.773
520.013;  313.284;  588.867;  664.240
520.295;  911.154;  -94.134;  -15.759
520.578; 2057.154; -335.131; -305.764
520.860; 2277.441; -254.132;   56.238
521.143; 1166.038; -763.135; -584.756
521.425;  484.332; -251.125; -279.775
521.707;  654.337; -622.127; -380.771
521.990; 1725.038; -199.127;  167.229
522.272; 1933.048; -116.140;   -4.748
522.554;  910.520; -237.143; -157.742
522.836;  383.727;  -24.134;   99.241
523.119;  253.357; -496.148; -189.734
523.401;  164.986; -448.130; -314.766
523.683;   98.049; -865.137; -693.753
523.965;  264.442;  408.862;  260.248
524.247;  278.778;   54.878;  170.220
524.529;  190.529; -451.134; -367.759
524.812;  362.337;   -3.130;  191.234
525.094;  834.266; -773.138; -631.751
525.376; 1324.291; -143.124;   78.223
525.658;  771.981; -441.136; -339.754
525.940;   48.025; -805.131; -671.764
526.222;   30.209; -188.136;  -88.755
526.504;  129.223; -190.131;   32.237
526.786;  209.456; -960.133; -647.760
527.068;  330.172; -124.123;  -67.778
527.349;  161.302; -865.137; -774.754
527.631;  137.066; -137.132;   22.238
527.913;  117.636; -664.127; -450.771
528.195;  165.675; -761.125; -639.774
528.477;  231.674;  -93.134;  -30.758
528.759;  125.437; -648.130; -522.766
529.040;   45.220; -569.123; -293.778
529.322;   47.378; -235.125;  -10.774
529.604;  152.115;  -47.130;   93.233
529.886;  142.244; -546.126; -302.773
530.167;  124.306;  232.870;  192.235
530.449;   49.238;    1.853;   63.265
530.731;   26.127; -572.122; -459.779
531.012;   66.873; -513.120; -216.784
531.294;   64.612; -118.116;  -43.792
531.575;  143.332;  290.875;  538.225
531.857;   36.519; -548.135; -266.757
532.138;   95.665; -113.141;   40.254
532.420;  180.490;  294.865;  403.244
532.701;  231.684; -722.133; -751.760
532.983;  373.537;  232.867;  182.239
533.264;  138.942; -243.126;  175.228
533.546;  -35.916; -491.136; -508.755
533.827;   56.930;  173.867;   -1.759
534.109;   59.169; -352.135;  -80.757
534.390;  105.320; -725.132; -582.762
534.671;  244.290; -270.135;  -82.756
534.953;  154.198; -751.123; -611.779
535.234;   29.597; -426.117; -255.789
535.515;  -73.619; -891.119; -735.785
535.796;  -22.643; -431.128; -193.770
536.078; -120.134;-1050.124; -904.777
536.359;    2.649;  -22.123;    3.221
536.640;  -24.223; -480.125; -197.774
536.921;  153.920;  225.871;  143.232
537.202;  365.513;  -87.138;  -16.751
537.483;  442.653;  251.869;  377.236
537.764;  170.581;   17.870;   98.235
538.045;  -34.452; -543.134; -371.758
538.326;  -20.653; -596.129; -447.768
538.607;    5.188; -686.127; -476.771
538.888;  169.439;   98.879;    5.218
