
Integration time [ms]: 100.000
Averaging Nr. [scans]: 40
Smoothing Nr. [pixels]: 0
Data measured with spectrometer [name]: 2101013U2
Wave   ;Sample   ;Dark     ;Reference
[nm]   ;[counts] ;[counts] ;[counts] 

394.013;   73.956; -450.257; -315.536
394.305;  194.229; -461.258; -419.536
394.596; 1636.426; -676.269; -527.514
394.887; 4372.997; -796.268; -654.518
395.178; 1573.560;  145.736;   11.476
395.470;  126.973; -210.263; -356.526
395.761;  161.465;  305.734;  394.479
396.052;   77.096; -545.284; -306.489
396.343;   67.982; -557.276; -454.503
396.634;   76.694; -200.279; -290.497
396.926;   21.293; -618.268; -565.517
397.217;   94.813;   11.725;  -17.504
397.508;   55.483; -366.273; -154.507
397.799;   38.594; -555.279; -571.497
398.090;   23.837; -973.280; -902.495
398.381;   90.603;   11.708;  -11.473
398.672;   -2.271; -585.292; -742.473
398.963;   34.326; -348.279; -373.498
399.254;   88.866;   54.709; -209.475
399.545;   -5.989;-1017.266; -883.520
399.836;   59.694; -407.277; -343.501
400.127;   84.324; -205.295; -209.468
400.418;   54.076; -423.274; -392.506
400.709;   79.621; -359.281; -333.493
401.000;   70.895; -268.291; -309.476
401.290;  156.720;  225.698;  115.545
401.581;  109.250; -166.286; -228.485
401.872;   93.389; -542.298; -486.462
402.163;  129.589; -313.296; -252.467
402.454;  182.991; -123.291; -163.475
402.744;  125.778; -844.297; -813.465
403.035;  277.042; -226.293;  -86.471
403.326;  326.108; -366.292; -384.474
403.617;  416.582;  204.701;  165.539
403.907;  494.053; -593.283; -679.490
404.198; 3854.288; -545.307; -599.446
404.489; 9491.859; -618.283; -588.491
404.779; 2662.099; -618.302; -660.456
405.070;  397.373;  -67.304; -174.451
405.360;  607.695; -259.293; -238.472
405.651;  552.188;  125.699;   98.542
405.942;  235.744;  209.714;  127.516
406.232;  148.162; -432.285; -413.487
406.523;  314.011;  641.706;  758.530
406.813;  131.696; -579.286; -644.484
407.104;  299.552;  261.708;  144.527
407.394;  152.783; -604.299; -591.462
407.685;  227.461;  336.715;  222.513
407.975;  149.157; -400.283; -382.490
408.265;  201.884; -134.289; -190.478
408.556;  134.988; -472.291; -459.475
408.846;  264.062;  474.706;  429.530
409.137;  178.195;   -1.288; -216.480
409.427;  147.386; -193.285; -271.487
409.717;  116.212; -776.273; -692.508
410.007;  202.328;    4.715; -170.486
410.298;  184.802; -360.295; -342.469
410.588;  183.358; -495.285; -510.486
410.878;  102.183; -792.287; -873.482
411.168;  176.217; -481.298; -478.463
411.459;  188.276; -295.283; -242.489
411.749;  165.636; -609.292; -507.474
412.039;  132.193; -755.289; -386.480
412.329;  264.360;   40.722;  132.501
412.619;  256.272;  -62.286; -148.485
412.909;  407.113;  639.711;  594.521
413.199;  373.112; -130.280; -251.495
413.490;  432.426;  521.710;  352.523
413.780;  244.492;-1013.279; -913.496
414.070;  433.959;  -46.276;  235.497
414.360;  453.530; -729.278; -666.498
414.650;  604.929; -726.288; -688.482
414.940;  823.966; -538.280; -441.496
415.230; 1316.550;   50.712;   74.519
415.520; 8740.475;  155.730;   66.486
415.809;35530.220; -305.281; -125.493
416.099;26526.822; -388.277; -229.501
416.389; 8016.823;  435.726;  236.494
416.679; 4635.028;   91.738;   85.473
416.969;  886.814; -527.287; -503.483
417.259;  801.044;  341.721;  171.503
417.549; 1033.844;  522.718;  318.508
417.838; 2608.596; -205.268; -147.518
418.128; 8667.308;  650.710;  492.522
418.418; 7024.920; -491.272; -579.509
418.708; 4779.598;    9.726;  -48.506
418.997;18432.243; -474.275; -480.505
419.287;18609.157; -733.273; -790.507
419.577;18326.800; -160.283; -123.489
419.866;58276.794; -588.277; -498.501
420.156;56122.545; -242.270;  -55.513
420.446; 9258.394; -112.263;  -26.526
420.735; 1027.538; -376.271; -446.512
421.025; 1017.654; 1830.722;  315.502
421.314;  648.060; -203.271; -226.512
421.604;  695.012;   89.732;  233.484
421.893;  485.206; -705.271; -602.511
422.183;  399.069; -487.263; -461.526
422.472;  482.858;  -36.271; -107.511
422.762;  502.768; -416.266; -379.521
423.051;  361.659; -916.276; -916.503
423.341;  422.434; -491.273; -439.507
423.630;  496.351; -121.265;   15.477
423.919;  496.642;   58.725;   49.495
424.209;  547.476;  -31.263;   56.473
424.498;  720.068;   68.732;  161.483
424.787; 1555.876; -535.267; -601.518
425.077; 4400.949;   34.735;   29.478
425.366; 4421.983; -734.262; -744.528
425.655;13609.685;  639.727;  259.493
425.945;35778.367; -313.247; -268.554
426.234;18704.261;  117.741;  300.467
426.523; 7612.342;  -86.259; -350.534
426.812;10163.388;  107.734;  159.480
427.101;15394.708; -127.269; -323.515
427.390;17593.525;  -55.270;  -86.514
427.680; 2331.366; -624.257; -411.538
427.969;  614.230; -330.255; -301.540
428.258;  421.481; -385.257; -477.536
428.547;  573.525;  449.728;  397.490
428.836;  644.575; -421.253; -398.543
429.125;  861.844; -199.259;  -72.534
429.414;  848.403; -330.251; -294.548
429.703; 4773.828; -231.251; -213.548
429.992;14537.707; -938.250; -828.549
430.281; 9075.860; -397.264; -331.524
430.570;  762.891;  -21.252;   32.454
430.859;  615.741;  279.741;  352.466
431.148;  619.562;  636.752;  631.446
431.437;  478.565;  391.748;  367.454
431.725;  305.358; -544.257; -481.536
432.014;  318.484; -845.253; -756.545
432.303;  524.431; -149.239; -105.569
432.592;  677.493; -460.263; -178.525
432.881; 1604.714; -601.248; -437.554
433.169;10003.156; -343.255;  -61.540
433.458;19975.448;  445.765;  540.424
433.747; 7789.264; -397.261; -289.529
434.036; 1090.801; -275.242; -280.564
434.324; 3149.473; -395.249; -379.551
434.613; 5559.793;   40.757;  159.437
434.902; 1655.819;  333.760;  439.433
435.190;  401.229;   75.761;  295.431
435.479;  292.720;  -52.245;   83.441
435.767;  199.955; -411.244; -427.561
436.056;  325.696; -340.242; -294.563
436.345;  593.122; -372.240; -223.568
436.633;  570.392;   60.750;  383.450
436.922;  302.174;  208.760;  414.432
437.210;  314.460; -194.236;    1.426
437.499;  429.020; -583.235; -432.576
437.787;  490.110; -339.236;  -10.574
438.075;  265.411;   56.761;  162.430
438.364;  270.289;  -44.238;  250.429
438.652;  202.819; -286.226; -138.592
438.941;  189.550;    3.770;  269.415
439.229;   85.088; -665.252; -466.545
439.517;  122.556; -160.234;  -85.577
439.806;   73.614; -501.225; -290.595
440.094;  226.165;  377.766;  650.421
440.382;  122.020; -653.233; -302.580
440.670;  119.720; -361.235; -285.576
440.959;   74.110; -347.223; -170.599
441.247;  128.064; -151.229; -109.587
441.535;  124.354; -266.235;   31.423
441.823;   78.562; -497.234; -305.578
442.111;  222.644;  173.771;  327.412
442.400;  343.845; -628.245; -335.559
442.688;  473.465; -111.234; -620.579
442.976;  207.394; -786.213; -450.617
443.264;   89.772; -324.224; -364.597
443.552;  102.495; -258.226;   51.408
443.840;  175.877;  602.765;  876.423
444.128;  150.569;  265.767;  269.420
444.416;   38.597; -694.228; -312.588
444.704;   82.772; -465.219;  -92.605
444.992;  101.849;   -0.226;  240.407
445.280;   73.350; -517.230;  -94.585
445.568;   56.548; -694.212; -396.618
445.856;  162.777; -174.221;  357.398
446.143;  252.117;  -54.220;   -7.604
446.431;  239.602;  -25.228;  625.411
446.719;  196.396;  489.783;  675.391
447.007;  216.618;  481.769;  705.416
447.295;  219.256;  597.777;  871.402
447.583;  143.711; -464.229;  -34.587
447.870;  178.923; -434.221; -202.601
448.158;  287.874; -104.230;  129.415
448.446;  188.343; -800.219; -338.604
448.733;  228.124;   13.776;  269.403
449.021;  275.548;   60.788;  341.382
449.309;  276.141; -296.210;  208.379
449.596;  360.091;  128.783;   59.392
449.884;  343.640; -571.222; -325.600
450.172;  441.308; -756.227; -406.590
450.459;  813.023;  645.786;  780.387
450.747; 4043.064; -411.218; -147.608
451.034;12727.653;  493.772;  889.411
451.322;10134.127; -413.214; -170.614
451.609;  874.200;  292.777;  508.403
451.897; 1042.344; -550.203; -183.634
452.184; 2924.657; -622.223; -400.598
452.472; 2605.343;   97.792;  269.375
452.759;  475.294;  512.781;  864.395
453.047;  238.170; -407.212; -125.617
453.334;  166.754; -732.219; -216.606
453.621;  157.630; -438.214; -161.615
453.909;  225.334;   13.796;  384.368
454.196;  250.440; -299.199; -123.641
454.483;  401.760;  317.798;  540.364
454.771;  277.421; -215.208;  196.374
455.058;  175.225; -316.207;  102.374
455.345;  263.934;   71.807;  344.347
455.632;  263.554; -128.207;  235.373
455.919;  193.118;  -82.196;  182.354
456.207;   73.396; -774.198; -450.642
456.494;  113.875; -475.200;  -66.639
456.781;  141.805; -399.202; -198.635
457.068;  173.238; -253.206;  -29.628
457.355;  108.314; -698.206; -401.629
457.642;  120.171; -552.205; -290.630
457.929;  150.147; -778.194; -417.651
458.216;  222.270; -575.212; -354.617
458.503;  493.578; -173.193;  -19.652
458.790;  542.719; -864.208; -630.625
459.077;  507.686;  -77.202;  110.364
459.364; 1319.739; -350.195; -210.649
459.651; 2728.335;  -46.206;  220.372
459.938; 1221.507; -864.209; -665.623
460.225;  196.940;  132.799;  276.363
460.512;   48.690; -836.197; -688.645
460.799;  248.538;  -32.218;  320.392
461.086;  244.956; -370.200; -251.640
461.372;  106.821; -509.198; -279.642
461.659;  137.195; -165.196;  108.354
461.946;  102.227; -445.193;  -54.651
462.233;  262.303;  842.800;  888.361
462.519;  570.399; -814.201; -464.639
462.806; 1614.715; -768.197; -497.645
463.093; 1365.627; -445.191;  -66.656
463.380;   65.053; -920.186; -824.664
463.666;  115.567; -259.197;  -18.646
463.953;  172.632; -406.195; -243.648
464.239;  335.007; -173.195;  -77.648
464.526;  465.171;  413.806;  743.350
464.813;  388.366; -565.190; -304.658
465.099;  386.628;  606.807;  607.348
465.386;  344.008;  903.807;  921.348
465.672;  126.790; -694.197; -522.645
465.959;  168.664; -598.188; -520.662
466.245;  117.808; -468.193; -359.652
466.532;  170.305; -109.195;   63.352
466.818;  123.228; -357.186; -216.664
467.104;  103.302; -488.182; -415.672
467.391;   91.294; -628.189; -459.658
467.677;  158.682; -289.186;    9.335
467.964;  120.577; -682.189; -471.660
468.250;  186.536; -331.186; -160.665
468.536;  230.945;   90.811;  180.341
468.822;  106.050; -821.184; -574.668
469.109;  275.952;  351.827;  471.311
469.395;  310.645;  729.808;  787.346
469.681;  328.649;   46.811;  156.341
469.967; 1964.955; -699.188; -382.660
470.254; 4218.565; -494.188; -306.662
470.540; 2607.568; -601.196; -476.646
470.826;  463.016; -488.181; -397.675
471.112;  504.430;  288.816;  113.331
471.398;  180.860; -253.183;  -58.670
471.684;  148.951; -626.177; -447.680
471.970;  145.096; -918.180; -981.675
472.256;  167.393; -521.192; -441.654
472.542;  149.891; -499.171; -434.691
472.828;  168.422; -743.182; -607.672
473.114;  169.595; -380.166; -283.700
473.400;  161.722; -504.175; -293.684
473.686;  161.127; -452.166; -400.701
473.972;  162.865; -230.174; -131.687
474.258;   83.877; -925.173; -843.689
474.544;  451.516; -183.178;   -2.679
474.830;  616.049;  -65.175;   45.316
475.116;  968.018; -123.190; -196.658
475.401; 1221.324; -558.180; -467.676
475.687;  384.472; -725.180; -718.676
475.973;   74.282; -673.181; -770.673
476.259;  383.276;  736.825;  764.315
476.544;  733.861; -539.176; -437.682
476.830; 1574.386; -398.172; -322.690
477.116; 1350.709; -430.177; -336.682
477.401;  269.973;  346.820;  358.324
477.687;   78.747; -289.175; -405.684
477.973;  119.237;   21.819;   28.326
478.258;   63.503; -448.163; -348.706
478.544;  112.717;   21.815;   61.334
478.829;   39.873; -818.171; -738.692
479.115;   42.185; -749.172; -651.690
479.401;   76.734; -444.174; -449.686
479.686;  146.472; -253.180;  -74.676
479.972;   91.247; -886.178; -776.680
480.257;  147.546; -258.166;  -65.700
480.542;  161.377; -614.170; -469.693
480.828;  376.820; 1288.824; 1392.317
481.113;   71.392; -464.176; -426.683
481.399;  112.932; -236.161; -202.711
481.684;   63.771; -620.166; -462.700
481.969;  132.149; -158.159;  -73.713
482.255;  118.341; -439.169; -285.695
482.540;  170.523; -569.178; -441.680
482.825;  182.422; -395.187; -404.663
483.110;  303.870;  -85.169; -105.696
483.396;  520.550; -840.157; -652.718
483.681;  869.315;  543.826;  730.313
483.966;  374.466; -696.160; -700.712
484.251;   88.039; -404.174; -310.687
484.536;   86.959; -356.165; -378.703
484.822;  136.142; -205.173; -218.687
485.107;   66.923; -599.152; -502.726
485.392;  206.391;  662.836;  541.296
485.677;  151.882;  354.832;  163.302
485.962;  212.397;  160.843;  270.283
486.247;  241.813;  -14.162;   -8.707
486.532;  164.373; -178.166; -325.701
486.817;  268.950;  381.839;  431.291
487.102;  240.027; -453.154; -514.722
487.387; 1163.903; -637.156; -652.718
487.672; 2082.672; -154.164;  -38.705
487.957; 1332.909; -394.160; -286.711
488.241;  458.693; -290.150; -314.729
488.526; 1284.949; -280.152; -148.726
488.811; 2097.350; -881.177; -818.680
489.096; 1479.705; -666.154; -702.723
489.381;  795.270;    3.847;  162.275
489.666;  741.957; -428.161; -510.710
489.950;  310.934;  558.846;  627.277
490.235;   65.662; -480.151; -458.728
490.520;   49.781; -756.161; -723.710
490.804;   46.805; -827.156; -736.719
491.089;   97.313; -469.149; -299.732
491.374;  109.921; -132.164;  -75.704
491.658;   67.227; -817.147; -717.735
491.943;  174.130; -657.152; -609.727
492.227;  267.546; -178.155;  -38.721
492.512;   94.347; -294.157; -341.717
492.797;    3.305; -713.149; -716.731
493.081;   23.205; -588.147; -598.735
493.366;   44.583; -751.161; -635.711
493.650;  291.646;  831.859;  917.254
493.935;  152.401; -648.147; -447.734
494.219;   44.905; -778.142; -687.743
494.503;   43.599; -585.150; -487.730
494.788;  119.736;   46.842;   74.285
495.072;  185.995;  184.850;  434.271
495.356;  276.342; -463.148; -343.733
495.641;  587.088; -812.146; -736.736
495.925;  492.836; -976.156; -903.719
496.209;   70.962; -599.149; -451.732
496.494;   29.281; -763.142; -544.744
496.778;   80.852; -364.154; -360.722
497.062;   20.611; -819.156; -627.719
497.346;   73.536; -869.160; -640.711
497.631;  256.821;  580.852;  560.266
497.915;  152.251;  -64.145;  175.261
498.199;   98.500; -341.157; -277.718
498.483;   98.472; -562.152; -508.725
498.767;  320.096;  301.850;  300.271
499.051;  346.534; -126.149; -100.732
499.335;  136.957; -693.149; -739.731
499.619;   49.421; -381.129; -423.767
499.903;   94.120; -272.155;  -65.721
500.187;  120.936; -588.153; -316.724
500.471;   89.879; -796.152; -595.727
500.755;  163.706;   62.839;  -96.710
501.039;   62.770; -270.155; -357.721
501.323;  129.698;  -21.141;  264.254
501.607;   67.503; -447.163; -503.706
501.891;   59.977; -607.156; -512.718
502.174;   -0.060; -726.144; -585.741
502.458;  104.684;   89.849;  370.273
502.742;   90.303; -180.138; -191.751
503.026;  255.301; -412.147; -254.734
503.310;  396.297; -437.159; -375.713
503.593;  265.653; -464.147; -325.735
503.877;  188.952; -232.133; -156.760
504.161;  228.714;    2.847;  -50.724
504.444;  250.764; -841.158; -710.716
504.728;  862.770; -487.164; -522.704
505.012; 1201.667; -257.150;  -76.729
505.295;  899.657; -417.161; -212.711
505.579;  953.361; -256.156; -496.719
505.862; 1353.922; -555.145; -333.738
506.146; 1359.575; -681.159; -758.714
506.429;  647.151;  568.841;  461.286
506.713;  202.014; -732.151; -667.728
506.996;  583.576;   90.846;  295.278
507.280;  647.414; -633.165; -474.703
507.563;  487.118; -469.155; -261.721
507.847;  274.362; -423.153; -112.724
508.130;  280.383; -665.161; -456.711
508.413;  317.866; -758.167; -577.700
508.697;  480.941; -151.167;   12.300
508.980;  325.663; -422.153; -312.724
509.263;   81.864; -466.155; -450.720
509.547;  109.567; -124.150;   82.271
509.830;  106.211; -172.160;  140.289
510.113;  135.660;  128.844;  298.281
510.396;   97.745; -530.152; -300.725
510.680;   67.349; -818.145; -812.738
510.963;  191.832;  184.846;  180.277
511.246;  112.852; -493.150; -357.730
511.529;  335.655; -482.145;  -83.739
511.812;  680.098; -250.134;   10.241
512.095;  532.160; -740.151; -396.728
512.378;  162.858; -317.147; -245.736
512.661;  138.437; -703.137; -623.753
512.944;  149.558; -750.142; -637.744
513.227;  155.059; -170.137; -171.752
513.510;  128.965; -479.144; -671.741
513.793;  102.778; -485.140; -435.747
514.076;  242.547;  -43.127;  -39.771
514.359;  230.213; -294.149; -135.732
514.642;  201.986; -442.142; -567.744
514.925; 1232.352;  581.860;  561.253
515.208; 1727.844; -498.134; -443.758
515.491; 1106.736; -276.133; -182.761
515.773;  630.545; -410.143; -337.742
516.056; 3406.545;  249.864;  409.246
516.339; 4413.175; -754.136; -652.755
516.622; 2036.874; -518.150; -488.730
516.904;  509.278;  882.857;  975.257
517.187;  216.007; -730.138; -523.752
517.470;  471.477; -568.143; -510.743
517.752;  800.128; -624.136; -470.756
518.035;  672.992; -708.139; -725.749
518.318;  728.800; -799.136; -744.755
518.600; 4168.190; -300.132; -325.762
518.883; 5736.086;  310.858;   88.256
519.165; 2624.948; -585.138; -426.751
519.448;  517.965;  -61.132;  -19.762
519.730;  278.681; -573.126; -415.773
520.013;  306.406;  588.867;  664.240
520.295;  266.625;  -94.134;  -15.759
520.578;  467.131; -335.131; -305.764
520.860;  700.540; -254.132;   56.238
521.143;  571.381; -763.135; -584.756
521.425;  623.172; -251.125; -279.775
521.707; 1014.922; -622.127; -380.771
521.990; 2884.598; -199.127;  167.229
522.272; 3326.456; -116.140;   -4.748
522.554; 1201.871; -237.143; -157.742
522.836;  276.598;  -24.134;   99.241
523.119;  219.249; -496.148; -189.734
523.401;  230.189; -448.130; -314.766
523.683;  210.788; -865.137; -693.753
523.965;  476.630;  408.862;  260.248
524.247;  511.023;   54.878;  170.220
524.529;  387.200; -451.134; -367.759
524.812;  539.867;   -3.130;  191.234
525.094; 1480.129; -773.138; -631.751
525.376; 2294.833; -143.124;   78.223
525.658; 1422.546; -441.136; -339.754
525.940;  168.602; -805.131; -671.764
526.222;  105.126; -188.136;  -88.755
526.504;  112.349; -190.131;   32.237
526.786;   57.553; -960.133; -647.760
527.068;  132.390; -124.123;  -67.778
527.349;   21.642; -865.137; -774.754
527.631;  164.240; -137.132;   22.238
527.913;  285.796; -664.127; -450.771
528.195;  360.663; -761.125; -639.774
528.477;  433.994;  -93.134;  -30.758
528.759;  325.067; -648.130; -522.766
529.040;  181.238; -569.123; -293.778
529.322;  119.117; -235.125;  -10.774
529.604;  126.219;  -47.130;   93.233
529.886;   56.056; -546.126; -302.773
530.167;  112.059;  232.870;  192.235
530.449;   94.707;    1.853;   63.265
530.731;  132.297; -572.122; -459.779
531.012;  213.598; -513.120; -216.784
531.294;  183.871; -118.116;  -43.792
531.575;  266.372;  290.875;  538.225
531.857;  188.238; -548.135; -266.757
532.138;  154.771; -113.141;   40.254
532.420;  161.458;  294.865;  403.244
532.701;   79.406; -722.133; -751.760
532.983;  209.635;  232.867;  182.239
533.264;   99.753; -243.126;  175.228
533.546;   29.426; -491.136; -508.755
533.827;   96.877;  173.867;   -1.759
534.109;   65.037; -352.135;  -80.757
534.390;  149.070; -725.132; -582.762
534.671;  380.108; -270.135;  -82.756
534.953;  269.817; -751.123; -611.779
535.234;  123.678; -426.117; -255.789
535.515;   26.433; -891.119; -735.785
535.796;   84.216; -431.128; -193.770
536.078;  -32.992;-1050.124; -904.777
536.359;   73.168;  -22.123;    3.221
536.640;   33.665; -480.125; -197.774
536.921;  207.451;  225.871;  143.232
537.202;  600.375;  -87.138;  -16.751
537.483;  747.005;  251.869;  377.236
537.764;  304.584;   17.870;   98.235
538.045;   23.943; -543.134; -371.758
538.326;   24.278; -596.129; -447.768
538.607;  116.273; -686.127; -476.771
538.888;  326.037;   98.879;    5.218
