
Integration time [ms]: 100.000
Averaging Nr. [scans]: 40
Smoothing Nr. [pixels]: 0
Data measured with spectrometer [name]: 2101013U2
Wave   ;Sample   ;Dark     ;Reference
[nm]   ;[counts] ;[counts] ;[counts] 

394.013;   53.178; -450.257; -315.536
394.305;  214.901; -461.258; -419.536
394.596; 1079.298; -676.269; -527.514
394.887; 2708.040; -796.268; -654.518
395.178; 1048.745;  145.736;   11.476
395.470;   84.806; -210.263; -356.526
395.761;  210.355;  305.734;  394.479
396.052;  317.873; -545.284; -306.489
396.343;  318.618; -557.276; -454.503
396.634;  104.412; -200.279; -290.497
396.926;  112.737; -618.268; -565.517
397.217;  114.423;   11.725;  -17.504
397.508;   48.938; -366.273; -154.507
397.799;   60.287; -555.279; -571.497
398.090;    9.331; -973.280; -902.495
398.381;  134.224;   11.708;  -11.473
398.672;   -7.950; -585.292; -742.473
398.963;   56.018; -348.279; -373.498
399.254;  101.359;   54.709; -209.475
399.545;  -36.674;-1017.266; -883.520
399.836;   54.557; -407.277; -343.501
400.127;   51.975; -205.295; -209.468
400.418;   57.908; -423.274; -392.506
400.709;   69.543; -359.281; -333.493
401.000;   41.988; -268.291; -309.476
401.290;  104.087;  225.698;  115.545
401.581;   60.231; -166.286; -228.485
401.872;   21.672; -542.298; -486.462
402.163;   51.593; -313.296; -252.467
402.454;   84.585; -123.291; -163.475
402.744;   71.059; -844.297; -813.465
403.035;  467.690; -226.293;  -86.471
403.326;  593.953; -366.292; -384.474
403.617;  401.367;  204.701;  165.539
403.907;  248.979; -593.283; -679.490
404.198; 2430.241; -545.307; -599.446
404.489; 6282.109; -618.283; -588.491
404.779; 2089.440; -618.302; -660.456
405.070;  230.344;  -67.304; -174.451
405.360;  342.092; -259.293; -238.472
405.651;  374.076;  125.699;   98.542
405.942;  200.476;  209.714;  127.516
406.232;  274.766; -432.285; -413.487
406.523;  470.510;  641.706;  758.530
406.813;  101.629; -579.286; -644.484
407.104;  347.198;  261.708;  144.527
407.394;  176.643; -604.299; -591.462
407.685;  147.715;  336.715;  222.513
407.975;   68.833; -400.283; -382.490
408.265;  122.549; -134.289; -190.478
408.556;   62.281; -472.291; -459.475
408.846;  184.611;  474.706;  429.530
409.137;   98.432;   -1.288; -216.480
409.427;   50.866; -193.285; -271.487
409.717;   26.966; -776.273; -692.508
410.007;  137.459;    4.715; -170.486
410.298;   90.153; -360.295; -342.469
410.588;   65.113; -495.285; -510.486
410.878;   39.718; -792.287; -873.482
411.168;  117.900; -481.298; -478.463
411.459;  115.027; -295.283; -242.489
411.749;   58.355; -609.292; -507.474
412.039;   63.631; -755.289; -386.480
412.329;  221.125;   40.722;  132.501
412.619;  213.579;  -62.286; -148.485
412.909;  378.077;  639.711;  594.521
413.199;  339.381; -130.280; -251.495
413.490;  418.842;  521.710;  352.523
413.780;  151.360;-1013.279; -913.496
414.070;  324.294;  -46.276;  235.497
414.360;  364.046; -729.278; -666.498
414.650;  427.389; -726.288; -688.482
414.940;  537.860; -538.280; -441.496
415.230;  943.286;   50.712;   74.519
415.520; 6056.197;  155.730;   66.486
415.809;23906.343; -305.281; -125.493
416.099;18594.434; -388.277; -229.501
416.389; 5160.081;  435.726;  236.494
416.679; 3034.110;   91.738;   85.473
416.969;  542.473; -527.287; -503.483
417.259;  478.712;  341.721;  171.503
417.549;  711.292;  522.718;  318.508
417.838; 1647.489; -205.268; -147.518
418.128; 5515.223;  650.710;  492.522
418.418; 4576.048; -491.272; -579.509
418.708; 3112.131;    9.726;  -48.506
418.997;11510.702; -474.275; -480.505
419.287;12018.638; -733.273; -790.507
419.577;11361.627; -160.283; -123.489
419.866;37661.007; -588.277; -498.501
420.156;38631.218; -242.270;  -55.513
420.446; 6985.502; -112.263;  -26.526
420.735;  877.812; -376.271; -446.512
421.025;  820.195; 1830.722;  315.502
421.314;  694.910; -203.271; -226.512
421.604; 1459.357;   89.732;  233.484
421.893;  855.907; -705.271; -602.511
422.183;  220.828; -487.263; -461.526
422.472;  369.258;  -36.271; -107.511
422.762;  470.782; -416.266; -379.521
423.051;  261.970; -916.276; -916.503
423.341;  286.414; -491.273; -439.507
423.630;  420.188; -121.265;   15.477
423.919;  393.826;   58.725;   49.495
424.209;  364.833;  -31.263;   56.473
424.498;  501.487;   68.732;  161.483
424.787; 1082.168; -535.267; -601.518
425.077; 3339.962;   34.735;   29.478
425.366; 4734.489; -734.262; -744.528
425.655; 9821.290;  639.727;  259.493
425.945;21409.992; -313.247; -268.554
426.234;11949.736;  117.741;  300.467
426.523; 5042.166;  -86.259; -350.534
426.812; 6924.453;  107.734;  159.480
427.101;10183.278; -127.269; -323.515
427.390;12948.472;  -55.270;  -86.514
427.680; 2934.411; -624.257; -411.538
427.969;  491.322; -330.255; -301.540
428.258;  313.228; -385.257; -477.536
428.547;  541.452;  449.728;  397.490
428.836; 1246.488; -421.253; -398.543
429.125; 1816.943; -199.259;  -72.534
429.414;  823.436; -330.251; -294.548
429.703; 3102.911; -231.251; -213.548
429.992; 9274.039; -938.250; -828.549
430.281; 6109.521; -397.264; -331.524
430.570;  575.601;  -21.252;   32.454
430.859;  570.691;  279.741;  352.466
431.148;  457.938;  636.752;  631.446
431.437;  292.726;  391.748;  367.454
431.725;  151.679; -544.257; -481.536
432.014;  132.645; -845.253; -756.545
432.303;  390.663; -149.239; -105.569
432.592;  627.802; -460.263; -178.525
432.881; 1068.614; -601.248; -437.554
433.169; 6158.973; -343.255;  -61.540
433.458;12523.647;  445.765;  540.424
433.747; 5285.194; -397.261; -289.529
434.036;  887.489; -275.242; -280.564
434.324; 2095.526; -395.249; -379.551
434.613; 3654.658;   40.757;  159.437
434.902; 1195.754;  333.760;  439.433
435.190;  557.337;   75.761;  295.431
435.479;  334.065;  -52.245;   83.441
435.767;  106.048; -411.244; -427.561
436.056;  210.810; -340.242; -294.563
436.345;  382.106; -372.240; -223.568
436.633;  387.647;   60.750;  383.450
436.922;  264.633;  208.760;  414.432
437.210;  598.037; -194.236;    1.426
437.499; 1962.345; -583.235; -432.576
437.787; 2173.187; -339.236;  -10.574
438.075;  530.568;   56.761;  162.430
438.364;  745.145;  -44.238;  250.429
438.652;  444.925; -286.226; -138.592
438.941;  133.289;    3.770;  269.415
439.229;   -0.552; -665.252; -466.545
439.517;   38.279; -160.234;  -85.577
439.806;    4.665; -501.225; -290.595
440.094;  181.586;  377.766;  650.421
440.382;  169.890; -653.233; -302.580
440.670;  214.020; -361.235; -285.576
440.959;   20.033; -347.223; -170.599
441.247;   94.175; -151.229; -109.587
441.535;   94.802; -266.235;   31.423
441.823;   42.408; -497.234; -305.578
442.111;  192.954;  173.771;  327.412
442.400;  530.539; -628.245; -335.559
442.688; 1421.536; -111.234; -620.579
442.976; 1009.670; -786.213; -450.617
443.264;  101.522; -324.224; -364.597
443.552;  112.001; -258.226;   51.408
443.840;  156.851;  602.765;  876.423
444.128;  117.814;  265.767;  269.420
444.416;    2.782; -694.228; -312.588
444.704;   30.737; -465.219;  -92.605
444.992;   61.104;   -0.226;  240.407
445.280;   37.965; -517.230;  -94.585
445.568;   44.099; -694.212; -396.618
445.856;  349.071; -174.221;  357.398
446.143;  782.783;  -54.220;   -7.604
446.431;  670.511;  -25.228;  625.411
446.719;  238.481;  489.783;  675.391
447.007;  185.259;  481.769;  705.416
447.295;  182.430;  597.777;  871.402
447.583;   77.723; -464.229;  -34.587
447.870;  144.568; -434.221; -202.601
448.158;  418.438; -104.230;  129.415
448.446;  326.084; -800.219; -338.604
448.733;  177.398;   13.776;  269.403
449.021;  264.648;   60.788;  341.382
449.309;  199.063; -296.210;  208.379
449.596;  215.028;  128.783;   59.392
449.884;  162.387; -571.222; -325.600
450.172;  151.816; -756.227; -406.590
450.459;  431.928;  645.786;  780.387
450.747; 2350.826; -411.218; -147.608
451.034; 7550.287;  493.772;  889.411
451.322; 6212.831; -413.214; -170.614
451.609;  538.375;  292.777;  508.403
451.897;  583.801; -550.203; -183.634
452.184; 1769.655; -622.223; -400.598
452.472; 1659.334;   97.792;  269.375
452.759;  338.710;  512.781;  864.395
453.047;  121.346; -407.212; -125.617
453.334;   78.893; -732.219; -216.606
453.621;   74.034; -438.214; -161.615
453.909;  121.443;   13.796;  384.368
454.196;  117.413; -299.199; -123.641
454.483;  219.389;  317.798;  540.364
454.771;  115.387; -215.208;  196.374
455.058;   31.766; -316.207;  102.374
455.345;   92.143;   71.807;  344.347
455.632;   85.569; -128.207;  235.373
455.919;   47.285;  -82.196;  182.354
456.207;  -61.033; -774.198; -450.642
456.494;  -20.474; -475.200;  -66.639
456.781;   10.634; -399.202; -198.635
457.068;   55.575; -253.206;  -29.628
457.355;   -9.749; -698.206; -401.629
457.642;   12.982; -552.205; -290.630
457.929;    2.484; -778.194; -417.651
458.216;   82.171; -575.212; -354.617
458.503;  241.039; -173.193;  -19.652
458.790;  208.535; -864.208; -630.625
459.077;  276.464;  -77.202;  110.364
459.364;  790.577; -350.195; -210.649
459.651; 1674.223;  -46.206;  220.372
459.938;  782.276; -864.209; -665.623
460.225;  143.192;  132.799;  276.363
460.512;  -49.243; -836.197; -688.645
460.799;  106.975;  -32.218;  320.392
461.086;   65.705; -370.200; -251.640
461.372;   28.468; -509.198; -279.642
461.659;  103.537; -165.196;  108.354
461.946;   61.812; -445.193;  -54.651
462.233;  232.553;  842.800;  888.361
462.519;  360.250; -814.201; -464.639
462.806; 1021.708; -768.197; -497.645
463.093;  864.908; -445.191;  -66.656
463.380;  -34.976; -920.186; -824.664
463.666;   58.185; -259.197;  -18.646
463.953;   86.197; -406.195; -243.648
464.239;  194.072; -173.195;  -77.648
464.526;  404.507;  413.806;  743.350
464.813;  330.069; -565.190; -304.658
465.099;  364.863;  606.807;  607.348
465.386;  316.592;  903.807;  921.348
465.672;   23.808; -694.197; -522.645
465.959;   31.812; -598.188; -520.662
466.245;   20.017; -468.193; -359.652
466.532;   97.245; -109.195;   63.352
466.818;   71.148; -357.186; -216.664
467.104;    3.063; -488.182; -415.672
467.391;  -13.429; -628.189; -459.658
467.677;   43.527; -289.186;    9.335
467.964;   -7.097; -682.189; -471.660
468.250;   65.955; -331.186; -160.665
468.536;   80.322;   90.811;  180.341
468.822;  -38.833; -821.184; -574.668
469.109;  136.894;  351.827;  471.311
469.395;  199.777;  729.808;  787.346
469.681;  194.975;   46.811;  156.341
469.967; 1222.005; -699.188; -382.660
470.254; 2653.563; -494.188; -306.662
470.540; 1712.985; -601.196; -476.646
470.826;  240.099; -488.181; -397.675
471.112;  303.045;  288.816;  113.331
471.398;   93.550; -253.183;  -58.670
471.684;   39.103; -626.177; -447.680
471.970;  -13.147; -918.180; -981.675
472.256;   14.001; -521.192; -441.654
472.542;   10.855; -499.171; -434.691
472.828;    9.309; -743.182; -607.672
473.114;   25.398; -380.166; -283.700
473.400;   18.094; -504.175; -293.684
473.686;   17.804; -452.166; -400.701
473.972;   55.184; -230.174; -131.687
474.258;  -52.981; -925.173; -843.689
474.544;  195.669; -183.178;   -2.679
474.830;  312.171;  -65.175;   45.316
475.116;  476.796; -123.190; -196.658
475.401;  642.231; -558.180; -467.676
475.687;  194.630; -725.180; -718.676
475.973;    6.242; -673.181; -770.673
476.259;  249.148;  736.825;  764.315
476.544;  347.236; -539.176; -437.682
476.830;  837.551; -398.172; -322.690
477.116;  707.359; -430.177; -336.682
477.401;  141.355;  346.820;  358.324
477.687;  -12.606; -289.175; -405.684
477.973;   46.971;   21.819;   28.326
478.258;  -20.025; -448.163; -348.706
478.544;   40.735;   21.815;   61.334
478.829;  -56.765; -818.171; -738.692
479.115;  -41.050; -749.172; -651.690
479.401;   -5.271; -444.174; -449.686
479.686;   49.029; -253.180;  -74.676
479.972;  -38.426; -886.178; -776.680
480.257;   39.974; -258.166;  -65.700
480.542;   -8.411; -614.170; -469.693
480.828;  239.267; 1288.824; 1392.317
481.113;  -36.260; -464.176; -426.683
481.399;    4.598; -236.161; -202.711
481.684;  -72.101; -620.166; -462.700
481.969;   30.337; -158.159;  -73.713
482.255;  -15.125; -439.169; -285.695
482.540;   15.100; -569.178; -441.680
482.825;    8.869; -395.187; -404.663
483.110;   90.728;  -85.169; -105.696
483.396;  182.533; -840.157; -652.718
483.681;  498.509;  543.826;  730.313
483.966;  151.056; -696.160; -700.712
484.251;   11.908; -404.174; -310.687
484.536;    3.809; -356.165; -378.703
484.822;    6.786; -205.173; -218.687
485.107;  -30.029; -599.152; -502.726
485.392;  138.840;  662.836;  541.296
485.677;   66.963;  354.832;  163.302
485.962;  105.981;  160.843;  270.283
486.247;   96.782;  -14.162;   -8.707
486.532;   52.800; -178.166; -325.701
486.817;  157.343;  381.839;  431.291
487.102;  124.154; -453.154; -514.722
487.387;  649.310; -637.156; -652.718
487.672; 1165.620; -154.164;  -38.705
487.957;  731.925; -394.160; -286.711
488.241;  203.313; -290.150; -314.729
488.526;  730.647; -280.152; -148.726
488.811; 1158.227; -881.177; -818.680
489.096;  885.707; -666.154; -702.723
489.381;  494.994;    3.847;  162.275
489.666;  389.123; -428.161; -510.710
489.950;  169.860;  558.846;  627.277
490.235;  -26.992; -480.151; -458.728
490.520;  -36.553; -756.161; -723.710
490.804;  -58.563; -827.156; -736.719
491.089;    8.878; -469.149; -299.732
491.374;   34.369; -132.164;  -75.704
491.658;   -5.835; -817.147; -717.735
491.943;  166.127; -657.152; -609.727
492.227;  263.175; -178.155;  -38.721
492.512;   44.730; -294.157; -341.717
492.797;  -66.753; -713.149; -716.731
493.081;  -47.508; -588.147; -598.735
493.366;  -41.977; -751.161; -635.711
493.650;  198.970;  831.859;  917.254
493.935;   36.239; -648.147; -447.734
494.219;  -40.493; -778.142; -687.743
494.503;  -41.183; -585.150; -487.730
494.788;   36.822;   46.842;   74.285
495.072;  105.864;  184.850;  434.271
495.356;  165.856; -463.148; -343.733
495.641;  471.249; -812.146; -736.736
495.925;  428.917; -976.156; -903.719
496.209;   42.278; -599.149; -451.732
496.494;  -49.117; -763.142; -544.744
496.778;   18.454; -364.154; -360.722
497.062;  -50.184; -819.156; -627.719
497.346;  -34.774; -869.160; -640.711
497.631;  117.135;  580.852;  560.266
497.915;   89.109;  -64.145;  175.261
498.199;   48.383; -341.157; -277.718
498.483;   38.471; -562.152; -508.725
498.767;  192.815;  301.850;  300.271
499.051;  178.225; -126.149; -100.732
499.335;   30.574; -693.149; -739.731
499.619;  -25.629; -381.129; -423.767
499.903;   20.674; -272.155;  -65.721
500.187;   30.636; -588.153; -316.724
500.471;   22.476; -796.152; -595.727
500.755;  104.897;   62.839;  -96.710
501.039;   15.999; -270.155; -357.721
501.323;   85.772;  -21.141;  264.254
501.607;   40.375; -447.163; -503.706
501.891;    4.684; -607.156; -512.718
502.174;  -34.779; -726.144; -585.741
502.458;   80.680;   89.849;  370.273
502.742;   23.471; -180.138; -191.751
503.026;  100.314; -412.147; -254.734
503.310;  163.435; -437.159; -375.713
503.593;  121.390; -464.147; -325.735
503.877;  122.036; -232.133; -156.760
504.161;  186.339;    2.847;  -50.724
504.444;  130.324; -841.158; -710.716
504.728;  447.268; -487.164; -522.704
505.012;  716.012; -257.150;  -76.729
505.295;  525.998; -417.161; -212.711
505.579;  526.991; -256.156; -496.719
505.862;  736.181; -555.145; -333.738
506.146;  730.388; -681.159; -758.714
506.429;  402.888;  568.841;  461.286
506.713;   72.709; -732.151; -667.728
506.996;  330.304;   90.846;  295.278
507.280;  333.313; -633.165; -474.703
507.563;  234.422; -469.155; -261.721
507.847;  102.887; -423.153; -112.724
508.130;   82.424; -665.161; -456.711
508.413;  105.345; -758.167; -577.700
508.697;  253.170; -151.167;   12.300
508.980;  146.763; -422.153; -312.724
509.263;   -1.706; -466.155; -450.720
509.547;   39.837; -124.150;   82.271
509.830;   55.476; -172.160;  140.289
510.113;   80.216;  128.844;  298.281
510.396;   29.844; -530.152; -300.725
510.680;  157.232; -818.145; -812.738
510.963;  631.733;  184.846;  180.277
511.246;  548.619; -493.150; -357.730
511.529;  243.662; -482.145;  -83.739
511.812;  378.457; -250.134;   10.241
512.095;  241.881; -740.151; -396.728
512.378;   74.769; -317.147; -245.736
512.661;   28.003; -703.137; -623.753
512.944;   15.610; -750.142; -637.744
513.227;   78.501; -170.137; -171.752
513.510;   23.795; -479.144; -671.741
513.793;   44.801; -485.140; -435.747
514.076;  137.991;  -43.127;  -39.771
514.359;  109.304; -294.149; -135.732
514.642;   70.512; -442.142; -567.744
514.925;  734.050;  581.860;  561.253
515.208;  997.779; -498.134; -443.758
515.491;  659.267; -276.133; -182.761
515.773;  363.999; -410.143; -337.742
516.056; 2085.710;  249.864;  409.246
516.339; 2806.764; -754.136; -652.755
516.622; 1919.042; -518.150; -488.730
516.904; 1284.506;  882.857;  975.257
517.187;  597.424; -730.138; -523.752
517.470;  416.080; -568.143; -510.743
517.752;  422.566; -624.136; -470.756
518.035;  341.412; -708.139; -725.749
518.318;  377.264; -799.136; -744.755
518.600; 2378.146; -300.132; -325.762
518.883; 3299.862;  310.858;   88.256
519.165; 1601.817; -585.138; -426.751
519.448;  403.921;  -61.132;  -19.762
519.730;  212.224; -573.126; -415.773
520.013;  319.989;  588.867;  664.240
520.295;  851.759;  -94.134;  -15.759
520.578; 1932.984; -335.131; -305.764
520.860; 2120.296; -254.132;   56.238
521.143; 1108.468; -763.135; -584.756
521.425;  482.737; -251.125; -279.775
521.707;  658.892; -622.127; -380.771
521.990; 1766.792; -199.127;  167.229
522.272; 1985.503; -116.140;   -4.748
522.554;  918.200; -237.143; -157.742
522.836;  381.957;  -24.134;   99.241
523.119;  225.837; -496.148; -189.734
523.401;  143.265; -448.130; -314.766
523.683;  102.354; -865.137; -693.753
523.965;  264.372;  408.862;  260.248
524.247;  279.558;   54.878;  170.220
524.529;  218.434; -451.134; -367.759
524.812;  350.942;   -3.130;  191.234
525.094;  847.896; -773.138; -631.751
525.376; 1334.171; -143.124;   78.223
525.658;  831.911; -441.136; -339.754
525.940;   40.555; -805.131; -671.764
526.222;   31.114; -188.136;  -88.755
526.504;  120.378; -190.131;   32.237
526.786;  192.361; -960.133; -647.760
527.068;  299.701; -124.123;  -67.778
527.349;  137.357; -865.137; -774.754
527.631;  138.570; -137.132;   22.238
527.913;  130.916; -664.127; -450.771
528.195;  171.930; -761.125; -639.774
528.477;  248.554;  -93.134;  -30.758
528.759;  143.592; -648.130; -522.766
529.040;   56.475; -569.123; -293.778
529.322;   51.882; -235.125;  -10.774
529.604;  147.044;  -47.130;   93.233
529.886;  124.999; -546.126; -302.773
530.167;  150.736;  232.870;  192.235
530.449;   53.269;    1.853;   63.265
530.731;   22.357; -572.122; -459.779
531.012;   55.828; -513.120; -216.784
531.294;   82.991; -118.116;  -43.792
531.575;  126.487;  290.875;  538.225
531.857;   55.324; -548.135; -266.757
532.138;   84.995; -113.141;   40.254
532.420;  188.445;  294.865;  403.244
532.701;  207.089; -722.133; -751.760
532.983;  356.142;  232.867;  182.239
533.264;  110.847; -243.126;  175.228
533.546;  -34.036; -491.136; -508.755
533.827;   40.210;  173.867;   -1.759
534.109;   36.499; -352.135;  -80.757
534.390;  102.050; -725.132; -582.762
534.671;  242.045; -270.135;  -82.756
534.953;  128.853; -751.123; -611.779
535.234;   30.827; -426.117; -255.789
535.515;  -81.764; -891.119; -735.785
535.796;  -23.938; -431.128; -193.770
536.078; -115.855;-1050.124; -904.777
536.359;   11.603;  -22.123;    3.221
536.640;  -27.044; -480.125; -197.774
536.921;  167.475;  225.871;  143.232
537.202;  366.268;  -87.138;  -16.751
537.483;  456.083;  251.869;  377.236
537.764;  173.386;   17.870;   98.235
538.045;  -54.272; -543.134; -371.758
538.326;  -36.274; -596.129; -447.768
538.607;   13.968; -686.127; -476.771
538.888;  163.819;   98.879;    5.218
