
Integration time [ms]: 100.000
Averaging Nr. [scans]: 40
Smoothing Nr. [pixels]: 0
Data measured with spectrometer [name]: 2101013U2
Wave   ;Sample   ;Dark     ;Reference
[nm]   ;[counts] ;[counts] ;[counts] 

394.013;   39.037; -450.257; -315.536
394.305;  176.410; -461.258; -419.536
394.596; 1114.482; -676.269; -527.514
394.887; 2771.273; -796.268; -654.518
395.178; 1090.879;  145.736;   11.476
395.470;   67.240; -210.263; -356.526
395.761;  183.813;  305.734;  394.479
396.052;  218.331; -545.284; -306.489
396.343;  224.101; -557.276; -454.503
396.634;   98.570; -200.279; -290.497
396.926;   85.471; -618.268; -565.517
397.217;  107.881;   11.725;  -17.504
397.508;   35.471; -366.273; -154.507
397.799;   18.070; -555.279; -571.497
398.090;   -9.511; -973.280; -902.495
398.381;  110.881;   11.708;  -11.473
398.672;  -17.393; -585.292; -742.473
398.963;   30.301; -348.279; -373.498
399.254;  107.291;   54.709; -209.475
399.545;  -33.515;-1017.266; -883.520
399.836;   56.440; -407.277; -343.501
400.127;   67.132; -205.295; -209.468
400.418;   38.441; -423.274; -392.506
400.709;   50.101; -359.281; -333.493
401.000;   42.320; -268.291; -309.476
401.290;   96.743;  225.698;  115.545
401.581;   64.414; -166.286; -228.485
401.872;   17.154; -542.298; -486.462
402.163;   54.274; -313.296; -252.467
402.454;   80.442; -123.291; -163.475
402.744;   60.116; -844.297; -813.465
403.035;  394.222; -226.293;  -86.471
403.326;  482.335; -366.292; -384.474
403.617;  338.723;  204.701;  165.539
403.907;  254.162; -593.283; -679.490
404.198; 2480.872; -545.307; -599.446
404.489; 6340.817; -618.283; -588.491
404.779; 2088.897; -618.302; -660.456
405.070;  215.775;  -67.304; -174.451
405.360;  340.749; -259.293; -238.472
405.651;  384.308;  125.699;   98.542
405.942;  167.109;  209.714;  127.516
406.232;  193.573; -432.285; -413.487
406.523;  411.317;  641.706;  758.530
406.813;   82.061; -579.286; -644.484
407.104;  301.454;  261.708;  144.527
407.394;  147.624; -604.299; -591.462
407.685;  139.123;  336.715;  222.513
407.975;   51.165; -400.283; -382.490
408.265;  116.281; -134.289; -190.478
408.556;   48.763; -472.291; -459.475
408.846;  171.568;  474.706;  429.530
409.137;   88.714;   -1.288; -216.480
409.427;   58.448; -193.285; -271.487
409.717;   26.500; -776.273; -692.508
410.007;  134.292;    4.715; -170.486
410.298;   81.009; -360.295; -342.469
410.588;   56.395; -495.285; -510.486
410.878;   30.026; -792.287; -873.482
411.168;  104.306; -481.298; -478.463
411.459;  114.185; -295.283; -242.489
411.749;   51.437; -609.292; -507.474
412.039;   49.213; -755.289; -386.480
412.329;  203.058;   40.722;  132.501
412.619;  192.686;  -62.286; -148.485
412.909;  358.134;  639.711;  594.521
413.199;  315.889; -130.280; -251.495
413.490;  372.724;  521.710;  352.523
413.780;  134.393;-1013.279; -913.496
414.070;  315.602;  -46.276;  235.497
414.360;  368.729; -729.278; -666.498
414.650;  413.222; -726.288; -688.482
414.940;  525.193; -538.280; -441.496
415.230;  940.194;   50.712;   74.519
415.520; 6159.956;  155.730;   66.486
415.809;24268.376; -305.281; -125.493
416.099;19049.417; -388.277; -229.501
416.389; 5357.964;  435.726;  236.494
416.679; 3176.994;   91.738;   85.473
416.969;  544.755; -527.287; -503.483
417.259;  598.095;  341.721;  171.503
417.549;  694.374;  522.718;  318.508
417.838; 1696.973; -205.268; -147.518
418.128; 5657.780;  650.710;  492.522
418.418; 4761.781; -491.272; -579.509
418.708; 3207.289;    9.726;  -48.506
418.997;12006.185; -474.275; -480.505
419.287;12533.846; -733.273; -790.507
419.577;11978.959; -160.283; -123.489
419.866;39435.615; -588.277; -498.501
420.156;40184.002; -242.270;  -55.513
420.446; 7227.536; -112.263;  -26.526
420.735;  814.821; -376.271; -446.512
421.025;  821.878; 1830.722;  315.502
421.314;  648.694; -203.271; -226.512
421.604; 1201.515;   89.732;  233.484
421.893;  707.290; -705.271; -602.511
422.183;  214.611; -487.263; -461.526
422.472;  374.792;  -36.271; -107.511
422.762;  427.241; -416.266; -379.521
423.051;  247.877; -916.276; -916.503
423.341;  281.648; -491.273; -439.507
423.630;  386.397; -121.265;   15.477
423.919;  364.959;   58.725;   49.495
424.209;  384.842;  -31.263;   56.473
424.498;  501.895;   68.732;  161.483
424.787; 1093.127; -535.267; -601.518
425.077; 3361.020;   34.735;   29.478
425.366; 4589.173; -734.262; -744.528
425.655;10175.448;  639.727;  259.493
425.945;22905.927; -313.247; -268.554
426.234;12771.745;  117.741;  300.467
426.523; 5158.600;  -86.259; -350.534
426.812; 7128.187;  107.734;  159.480
427.101;10507.837; -127.269; -323.515
427.390;13168.906;  -55.270;  -86.514
427.680; 2800.720; -624.257; -411.538
427.969;  452.006; -330.255; -301.540
428.258;  305.337; -385.257; -477.536
428.547;  506.685;  449.728;  397.490
428.836; 1110.122; -421.253; -398.543
429.125; 1617.102; -199.259;  -72.534
429.414;  774.870; -330.251; -294.548
429.703; 3168.895; -231.251; -213.548
429.992; 9611.599; -938.250; -828.549
430.281; 6289.529; -397.264; -331.524
430.570;  566.486;  -21.252;   32.454
430.859;  516.175;  279.741;  352.466
431.148;  412.623;  636.752;  631.446
431.437;  271.510;  391.748;  367.454
431.725;  156.413; -544.257; -481.536
432.014;  105.630; -845.253; -756.545
432.303;  354.049; -149.239; -105.569
432.592;  579.061; -460.263; -178.525
432.881; 1062.999; -601.248; -437.554
433.169; 6369.257; -343.255;  -61.540
433.458;13000.958;  445.765;  540.424
433.747; 5434.578; -397.261; -289.529
434.036;  836.725; -275.242; -280.564
434.324; 2089.436; -395.249; -379.551
434.613; 3727.893;   40.757;  159.437
434.902; 1234.214;  333.760;  439.433
435.190;  479.147;   75.761;  295.431
435.479;  257.700;  -52.245;   83.441
435.767;   86.208; -411.244; -427.561
436.056;  204.195; -340.242; -294.563
436.345;  366.916; -372.240; -223.568
436.633;  367.956;   60.750;  383.450
436.922;  226.443;  208.760;  414.432
437.210;  483.748; -194.236;    1.426
437.499; 1465.931; -583.235; -432.576
437.787; 1670.122; -339.236;  -10.574
438.075;  453.028;   56.761;  162.430
438.364;  598.781;  -44.238;  250.429
438.652;  339.186; -286.226; -138.592
438.941;  110.300;    3.770;  269.415
439.229;  -19.092; -665.252; -466.545
439.517;   24.064; -160.234;  -85.577
439.806;    2.676; -501.225; -290.595
440.094;  169.872;  377.766;  650.421
440.382;  132.901; -653.233; -302.580
440.670;  159.005; -361.235; -285.576
440.959;   12.044; -347.223; -170.599
441.247;   63.286; -151.229; -109.587
441.535;   78.662; -266.235;   31.423
441.823;   23.444; -497.234; -305.578
442.111;  174.215;  173.771;  327.412
442.400;  440.799; -628.245; -335.559
442.688; 1160.071; -111.234; -620.579
442.976;  783.407; -786.213; -450.617
443.264;   98.308; -324.224; -364.597
443.552;   92.787; -258.226;   51.408
443.840;  157.036;  602.765;  876.423
444.128;  111.675;  265.767;  269.420
444.416;   -7.707; -694.228; -312.588
444.704;   19.674; -465.219;  -92.605
444.992;   69.840;   -0.226;  240.407
445.280;   34.750; -517.230;  -94.585
445.568;   42.185; -694.212; -396.618
445.856;  293.283; -174.221;  357.398
446.143;  612.045;  -54.220;   -7.604
446.431;  558.172;  -25.228;  625.411
446.719;  224.618;  489.783;  675.391
447.007;  175.920;  481.769;  705.416
447.295;  167.816;  597.777;  871.402
447.583;   77.409; -464.229;  -34.587
447.870;  133.354; -434.221; -202.601
448.158;  373.249; -104.230;  129.415
448.446;  258.496; -800.219; -338.604
448.733;  160.385;   13.776;  269.403
449.021;  227.960;   60.788;  341.382
449.309;  170.375; -296.210;  208.379
449.596;  205.964;  128.783;   59.392
449.884;  142.723; -571.222; -325.600
450.172;  145.227; -756.227; -406.590
450.459;  450.090;  645.786;  780.387
450.747; 2496.463; -411.218; -147.608
451.034; 8020.923;  493.772;  889.411
451.322; 6660.868; -413.214; -170.614
451.609;  557.936;  292.777;  508.403
451.897;  620.863; -550.203; -183.634
452.184; 1836.366; -622.223; -400.598
452.472; 1774.021;   97.792;  269.375
452.759;  339.672;  512.781;  864.395
453.047;   94.683; -407.212; -125.617
453.334;   52.929; -732.219; -216.606
453.621;   44.770; -438.214; -161.615
453.909;  109.380;   13.796;  384.368
454.196;   85.551; -299.199; -123.641
454.483;  209.251;  317.798;  540.364
454.771;  118.624; -215.208;  196.374
455.058;   35.153; -316.207;  102.374
455.345;  111.506;   71.807;  344.347
455.632;   88.406; -128.207;  235.373
455.919;   47.648;  -82.196;  182.354
456.207;  -67.320; -774.198; -450.642
456.494;  -17.262; -475.200;  -66.639
456.781;   12.247; -399.202; -198.635
457.068;   45.988; -253.206;  -29.628
457.355;  -28.886; -698.206; -401.629
457.642;   -6.131; -552.205; -290.630
457.929;   -4.403; -778.194; -417.651
458.216;   65.758; -575.212; -354.617
458.503;  253.552; -173.193;  -19.652
458.790;  246.572; -864.208; -630.625
459.077;  280.102;  -77.202;  110.364
459.364;  824.415; -350.195; -210.649
459.651; 1735.711;  -46.206;  220.372
459.938;  802.313; -864.209; -665.623
460.225;  139.480;  132.799;  276.363
460.512;  -38.280; -836.197; -688.645
460.799;   94.386;  -32.218;  320.392
461.086;   63.468; -370.200; -251.640
461.372;   33.055; -509.198; -279.642
461.659;   94.449; -165.196;  108.354
461.946;   45.950; -445.193;  -54.651
462.233;  216.640;  842.800;  888.361
462.519;  345.187; -814.201; -464.639
462.806; 1034.846; -768.197; -497.645
463.093;  881.196; -445.191;  -66.656
463.380;  -16.013; -920.186; -824.664
463.666;   36.723; -259.197;  -18.646
463.953;  101.485; -406.195; -243.648
464.239;  202.060; -173.195;  -77.648
464.526;  382.145;  413.806;  743.350
464.813;  303.333; -565.190; -304.658
465.099;  342.401;  606.807;  607.348
465.386;  314.380;  903.807;  921.348
465.672;   14.346; -694.197; -522.645
465.959;    3.950; -598.188; -520.662
466.245;   16.580; -468.193; -359.652
466.532;   76.982; -109.195;   63.352
466.818;   49.537; -357.186; -216.664
467.104;  -14.473; -488.182; -415.672
467.391;  -30.691; -628.189; -459.658
467.677;   36.541; -289.186;    9.335
467.964;   -4.284; -682.189; -471.660
468.250;   64.218; -331.186; -160.665
468.536;   64.386;   90.811;  180.341
468.822;  -39.920; -821.184; -574.668
469.109;  131.508;  351.827;  471.311
469.395;  192.365;  729.808;  787.346
469.681;  184.114;   46.811;  156.341
469.967; 1283.743; -699.188; -382.660
470.254; 2786.926; -494.188; -306.662
470.540; 1804.148; -601.196; -476.646
470.826;  267.513; -488.181; -397.675
471.112;  310.059;  288.816;  113.331
471.398;   84.713; -253.183;  -58.670
471.684;   33.592; -626.177; -447.680
471.970;    4.542; -918.180; -981.675
472.256;   26.189; -521.192; -441.654
472.542;   -6.656; -499.171; -434.691
472.828;   -7.552; -743.182; -607.672
473.114;   20.863; -380.166; -283.700
473.400;    3.183; -504.175; -293.684
473.686;   22.769; -452.166; -400.701
473.972;   48.948; -230.174; -131.687
474.258;  -48.167; -925.173; -843.689
474.544;  209.033; -183.178;   -2.679
474.830;  317.385;  -65.175;   45.316
475.116;  525.734; -123.190; -196.658
475.401;  688.894; -558.180; -467.676
475.687;  202.343; -725.180; -718.676
475.973;   -7.819; -673.181; -770.673
476.259;  222.912;  736.825;  764.315
476.544;  369.975; -539.176; -437.682
476.830;  875.915; -398.172; -322.690
477.116;  772.848; -430.177; -336.682
477.401;  150.144;  346.820;  358.324
477.687;  -15.342; -289.175; -405.684
477.973;   25.885;   21.819;   28.326
478.258;  -13.886; -448.163; -348.706
478.544;   51.849;   21.815;   61.334
478.829;  -55.200; -818.171; -738.692
479.115;  -60.510; -749.172; -651.690
479.401;  -17.582; -444.174; -449.686
479.686;   25.168; -253.180;  -74.676
479.972;  -22.136; -886.178; -776.680
480.257;   27.864; -258.166;  -65.700
480.542;   -1.422; -614.170; -469.693
480.828;  236.557; 1288.824; 1392.317
481.113;  -23.796; -464.176; -426.683
481.399;  -15.937; -236.161; -202.711
481.684;  -41.536; -620.166; -462.700
481.969;   18.377; -158.159;  -73.713
482.255;  -17.561; -439.169; -285.695
482.540;    4.989; -569.178; -441.680
482.825;   11.057; -395.187; -404.663
483.110;   86.492;  -85.169; -105.696
483.396;  218.023; -840.157; -652.718
483.681;  498.998;  543.826;  730.313
483.966;  170.871; -696.160; -700.712
484.251;   -5.378; -404.174; -310.687
484.536;   -2.926; -356.165; -378.703
484.822;   16.675; -205.173; -218.687
485.107;  -39.913; -599.152; -502.726
485.392;  130.230;  662.836;  541.296
485.677;   64.052;  354.832;  163.302
485.962;   93.246;  160.843;  270.283
486.247;   87.547;  -14.162;   -8.707
486.532;   36.240; -178.166; -325.701
486.817;  150.258;  381.839;  431.291
487.102;  102.045; -453.154; -514.722
487.387;  719.750; -637.156; -652.718
487.672; 1241.235; -154.164;  -38.705
487.957;  785.315; -394.160; -286.711
488.241;  217.578; -290.150; -314.729
488.526;  794.313; -280.152; -148.726
488.811; 1264.541; -881.177; -818.680
489.096;  933.722; -666.154; -702.723
489.381;  507.434;    3.847;  162.275
489.666;  427.038; -428.161; -510.710
489.950;  175.700;  558.846;  627.277
490.235;  -39.477; -480.151; -458.728
490.520;  -49.188; -756.161; -723.710
490.804;  -60.473; -827.156; -736.719
491.089;   -4.206; -469.149; -299.732
491.374;   38.134; -132.164;  -75.704
491.658;  -12.919; -817.147; -717.735
491.943;  142.292; -657.152; -609.727
492.227;  235.715; -178.155;  -38.721
492.512;   48.270; -294.157; -341.717
492.797;  -61.712; -713.149; -716.731
493.081;  -48.642; -588.147; -598.735
493.366;  -51.911; -751.161; -635.711
493.650;  201.086;  831.859;  917.254
493.935;   23.730; -648.147; -447.734
494.219;  -42.826; -778.142; -687.743
494.503;  -39.617; -585.150; -487.730
494.788;   52.737;   46.842;   74.285
495.072;  100.430;  184.850;  434.271
495.356;  167.472; -463.148; -343.733
495.641;  466.565; -812.146; -736.736
495.925;  421.032; -976.156; -903.719
496.209;   20.993; -599.149; -451.732
496.494;  -54.126; -763.142; -544.744
496.778;    9.395; -364.154; -360.722
497.062;  -65.118; -819.156; -627.719
497.346;  -35.533; -869.160; -640.711
497.631;  142.901;  580.852;  560.266
497.915;   75.675;  -64.145;  175.261
498.199;   43.198; -341.157; -277.718
498.483;   33.936; -562.152; -508.725
498.767;  196.456;  301.850;  300.271
499.051;  182.241; -126.149; -100.732
499.335;   22.014; -693.149; -739.731
499.619;  -31.212; -381.129; -423.767
499.903;   13.914; -272.155;  -65.721
500.187;   22.052; -588.153; -316.724
500.471;   18.541; -796.152; -595.727
500.755;  100.687;   62.839;  -96.710
501.039;   12.990; -270.155; -357.721
501.323;   80.313;  -21.141;  264.254
501.607;   33.440; -447.163; -503.706
501.891;  -12.075; -607.156; -512.718
502.174;  -35.263; -726.144; -585.741
502.458;   82.070;   89.849;  370.273
502.742;   30.012; -180.138; -191.751
503.026;  111.629; -412.147; -254.734
503.310;  182.251; -437.159; -375.713
503.593;  129.481; -464.147; -325.735
503.877;  120.827; -232.133; -156.760
504.161;  178.729;    2.847;  -50.724
504.444;  140.064; -841.158; -710.716
504.728;  501.108; -487.164; -522.704
505.012;  741.103; -257.150;  -76.729
505.295;  560.938; -417.161; -212.711
505.579;  554.682; -256.156; -496.719
505.862;  800.997; -555.145; -333.738
506.146;  769.828; -681.159; -758.714
506.429;  433.304;  568.841;  461.286
506.713;   68.125; -732.151; -667.728
506.996;  322.844;   90.846;  295.278
507.280;  354.153; -633.165; -474.703
507.563;  255.588; -469.155; -261.721
507.847;   94.078; -423.153; -112.724
508.130;   96.314; -665.161; -456.711
508.413;  127.335; -758.167; -577.700
508.697;  258.535; -151.167;   12.300
508.980;  155.129; -422.153; -312.724
509.263;   -5.216; -466.155; -450.720
509.547;   33.727; -124.150;   82.271
509.830;   43.666; -172.160;  140.289
510.113;   85.706;  128.844;  298.281
510.396;   39.410; -530.152; -300.725
510.680;  100.498; -818.145; -812.738
510.963;  502.824;  184.846;  180.277
511.246;  426.785; -493.150; -357.730
511.529;  260.103; -482.145;  -83.739
511.812;  411.274; -250.134;   10.241
512.095;  265.847; -740.151; -396.728
512.378;   75.285; -317.147; -245.736
512.661;   19.370; -703.137; -623.753
512.944;   26.276; -750.142; -637.744
513.227;   73.542; -170.137; -171.752
513.510;   22.537; -479.144; -671.741
513.793;   23.843; -485.140; -435.747
514.076;  136.909;  -43.127;  -39.771
514.359;  101.444; -294.149; -135.732
514.642;   93.654; -442.142; -567.744
514.925;  784.816;  581.860;  561.253
515.208; 1086.370; -498.134; -443.758
515.491;  701.609; -276.133; -182.761
515.773;  398.240; -410.143; -337.742
516.056; 2220.076;  249.864;  409.246
516.339; 2959.830; -754.136; -652.755
516.622; 1856.658; -518.150; -488.730
516.904; 1084.447;  882.857;  975.257
517.187;  488.466; -730.138; -523.752
517.470;  380.646; -568.143; -510.743
517.752;  461.933; -624.136; -470.756
518.035;  379.803; -708.139; -725.749
518.318;  403.905; -799.136; -744.755
518.600; 2594.988; -300.132; -325.762
518.883; 3618.953;  310.858;   88.256
519.165; 1729.383; -585.138; -426.751
519.448;  377.487;  -61.132;  -19.762
519.730;  177.866; -573.126; -415.773
520.013;  293.155;  588.867;  664.240
520.295;  719.451;  -94.134;  -15.759
520.578; 1570.676; -335.131; -305.764
520.860; 1788.913; -254.132;   56.238
521.143;  970.210; -763.135; -584.756
521.425;  486.304; -251.125; -279.775
521.707;  716.084; -622.127; -380.771
521.990; 1887.284; -199.127;  167.229
522.272; 2154.869; -116.140;   -4.748
522.554;  935.391; -237.143; -157.742
522.836;  328.524;  -24.134;   99.241
523.119;  202.228; -496.148; -189.734
523.401;  148.482; -448.130; -314.766
523.683;   92.870; -865.137; -693.753
523.965;  295.789;  408.862;  260.248
524.247;  290.175;   54.878;  170.220
524.529;  206.751; -451.134; -367.759
524.812;  356.484;   -3.130;  191.234
525.094;  899.988; -773.138; -631.751
525.376; 1440.013; -143.124;   78.223
525.658;  888.577; -441.136; -339.754
525.940;   21.072; -805.131; -671.764
526.222;   32.306; -188.136;  -88.755
526.504;   95.170; -190.131;   32.237
526.786;  140.303; -960.133; -647.760
527.068;  266.619; -124.123;  -67.778
527.349;   86.649; -865.137; -774.754
527.631;  112.962; -137.132;   22.238
527.913;  149.683; -664.127; -450.771
528.195;  182.547; -761.125; -639.774
528.477;  258.696;  -93.134;  -30.758
528.759;  149.359; -648.130; -522.766
529.040;   66.392; -569.123; -293.778
529.322;   54.025; -235.125;  -10.774
529.604;  118.161;  -47.130;   93.233
529.886;  120.016; -546.126; -302.773
530.167;  114.803;  232.870;  192.235
530.449;   48.135;    1.853;   63.265
530.731;   23.749; -572.122; -459.779
531.012;   72.620; -513.120; -216.784
531.294;   69.109; -118.116;  -43.792
531.575;  153.379;  290.875;  538.225
531.857;   63.690; -548.135; -266.757
532.138;  101.887; -113.141;   40.254
532.420;  163.937;  294.865;  403.244
532.701;  185.330; -722.133; -751.760
532.983;  310.259;  232.867;  182.239
533.264;  115.389; -243.126;  175.228
533.546;  -45.044; -491.136; -508.755
533.827;   27.927;  173.867;   -1.759
534.109;   33.940; -352.135;  -80.757
534.390;   81.891; -725.132; -582.762
534.671;  242.486; -270.135;  -82.756
534.953;  132.870; -751.123; -611.779
535.234;   31.169; -426.117; -255.789
535.515;  -77.646; -891.119; -735.785
535.796;  -13.946; -431.128; -193.770
536.078; -120.587;-1050.124; -904.777
536.359;    5.871;  -22.123;    3.221
536.640;  -12.076; -480.125; -197.774
536.921;  171.042;  225.871;  143.232
537.202;  381.660;  -87.138;  -16.751
537.483;  480.175;  251.869;  377.236
537.764;  162.403;   17.870;   98.235
538.045;  -40.255; -543.134; -371.758
538.326;  -44.832; -596.129; -447.768
538.607;    1.760; -686.127; -476.771
538.888;  182.261;   98.879;    5.218
