
Integration time [ms]: 200.000
Averaging Nr. [scans]: 10
Smoothing Nr. [pixels]: 0
Data measured with spectrometer [name]: 2101013U2
Wave   ;Sample   ;Dark     ;Reference
[nm]   ;[counts] ;[counts] ;[counts] 

394.013;  -73.061; -450.257; -315.536
394.305; -118.061; -461.258; -419.536
394.596; -155.373; -676.269; -527.514
394.887; -174.171; -796.268; -654.518
395.178;   23.933;  145.736;   11.476
395.470;  -34.766; -210.263; -356.526
395.761;   90.231;  305.734;  394.479
396.052; -138.987; -545.284; -306.489
396.343; -132.979; -557.276; -454.503
396.634;  -68.383; -200.279; -290.497
396.926; -122.171; -618.268; -565.517
397.217;   -9.079;   11.725;  -17.504
397.508;  -55.877; -366.273; -154.507
397.799; -142.983; -555.279; -571.497
398.090; -230.983; -973.280; -902.495
398.381;    7.404;   11.708;  -11.473
398.672; -171.096; -585.292; -742.473
398.963;  -96.682; -348.279; -373.498
399.254;   25.005;   54.709; -209.475
399.545; -247.170;-1017.266; -883.520
399.836; -100.180; -407.277; -343.501
400.127;  -33.799; -205.295; -209.468
400.418;  -63.077; -423.274; -392.506
400.709;  -68.985; -359.281; -333.493
401.000;  -55.194; -268.291; -309.476
401.290;   58.494;  225.698;  115.545
401.581;  -38.489; -166.286; -228.485
401.872; -114.602; -542.298; -486.462
402.163;  -60.900; -313.296; -252.467
402.454;  -25.295; -123.291; -163.475
402.744; -173.501; -844.297; -813.465
403.035;  -62.597; -226.293;  -86.471
403.326;  -91.495; -366.292; -384.474
403.617;   80.497;  204.701;  165.539
403.907; -131.387; -593.283; -679.490
404.198; -119.811; -545.307; -599.446
404.489; -153.786; -618.283; -588.491
404.779; -164.506; -618.302; -660.456
405.070;   16.792;  -67.304; -174.451
405.360;  -48.097; -259.293; -238.472
405.651;   67.096;  125.699;   98.542
405.942;   61.110;  209.714;  127.516
406.232; -110.588; -432.285; -413.487
406.523;  222.602;  641.706;  758.530
406.813; -153.390; -579.286; -644.484
407.104;   76.604;  261.708;  144.527
407.394; -167.102; -604.299; -591.462
407.685;   59.212;  336.715;  222.513
407.975; -116.986; -400.283; -382.490
408.265;    1.607; -134.289; -190.478
408.556;  -94.895; -472.291; -459.475
408.846;  140.603;  474.706;  429.530
409.137;  -13.992;   -1.288; -216.480
409.427;  -90.288; -193.285; -271.487
409.717; -134.476; -776.273; -692.508
410.007;  -13.189;    4.715; -170.486
410.298;  -79.498; -360.295; -342.469
410.588;  -99.688; -495.285; -510.486
410.878; -206.191; -792.287; -873.482
411.168; -107.102; -481.298; -478.463
411.459;  -38.487; -295.283; -242.489
411.749; -177.695; -609.292; -507.474
412.039; -180.292; -755.289; -386.480
412.329;   70.319;   40.722;  132.501
412.619;  -34.389;  -62.286; -148.485
412.909;  186.307;  639.711;  594.521
413.199;  -62.783; -130.280; -251.495
413.490;  128.006;  521.710;  352.523
413.780; -225.983;-1013.279; -913.496
414.070;   52.021;  -46.276;  235.497
414.360; -172.482; -729.278; -666.498
414.650; -167.291; -726.288; -688.482
414.940; -111.583; -538.280; -441.496
415.230;   45.808;   50.712;   74.519
415.520;    4.327;  155.730;   66.486
415.809;  -46.985; -305.281; -125.493
416.099; -144.580; -388.277; -229.501
416.389;  126.622;  435.726;  236.494
416.679;   26.134;   91.738;   85.473
416.969;  -97.390; -527.287; -503.483
417.259;   87.317;  341.721;  171.503
417.549;   91.615;  522.718;  318.508
417.838;  -24.271; -205.268; -147.518
418.128;  155.507;  650.710;  492.522
418.418; -136.876; -491.272; -579.509
418.708;   30.622;    9.726;  -48.506
418.997; -124.578; -474.275; -480.505
419.287; -212.777; -733.273; -790.507
419.577;  -49.787; -160.283; -123.489
419.866; -146.980; -588.277; -498.501
420.156;  -20.173; -242.270;  -55.513
420.446;  -33.566; -112.263;  -26.526
420.735; -122.974; -376.271; -446.512
421.025;  511.918; 1830.722;  315.502
421.314;  -40.274; -203.271; -226.512
421.604;   41.128;   89.732;  233.484
421.893; -183.275; -705.271; -602.511
422.183; -163.566; -487.263; -461.526
422.472;    5.926;  -36.271; -107.511
422.762;  -96.269; -416.266; -379.521
423.051; -248.179; -916.276; -916.503
423.341; -125.177; -491.273; -439.507
423.630;  -10.368; -121.265;   15.477
423.919;   25.122;   58.725;   49.495
424.209;    1.234;  -31.263;   56.473
424.498;    5.629;   68.732;  161.483
424.787; -125.970; -535.267; -601.518
425.077;    8.532;   34.735;   29.478
425.366; -167.965; -734.262; -744.528
425.655;  182.123;  639.727;  259.493
425.945;  -84.650; -313.247; -268.554
426.234;   39.237;  117.741;  300.467
426.523;  -87.862;  -86.259; -350.534
426.812;   27.631;  107.734;  159.480
427.101;   -9.872; -127.269; -323.515
427.390;  -25.673;  -55.270;  -86.514
427.680; -109.560; -624.257; -411.538
427.969;  -41.058; -330.255; -301.540
428.258; -122.261; -385.257; -477.536
428.547;   60.125;  449.728;  397.490
428.836; -113.057; -421.253; -398.543
429.125;  -54.762; -199.259;  -72.534
429.414;  -65.054; -330.251; -294.548
429.703;  -67.854; -231.251; -213.548
429.992; -247.354; -938.250; -828.549
430.281; -142.867; -397.264; -331.524
430.570;   10.145;  -21.252;   32.454
430.859;   39.638;  279.741;  352.466
431.148;  206.649;  636.752;  631.446
431.437;  100.145;  391.748;  367.454
431.725; -119.060; -544.257; -481.536
432.014; -247.856; -845.253; -756.545
432.303;  -49.642; -149.239; -105.569
432.592; -100.767; -460.263; -178.525
432.881; -161.051; -601.248; -437.554
433.169;  -32.258; -343.255;  -61.540
433.458;  128.262;  445.765;  540.424
433.747; -116.565; -397.261; -289.529
434.036;  -73.845; -275.242; -280.564
434.324; -124.552; -395.249; -379.551
434.613;   38.354;   40.757;  159.437
434.902;   80.157;  333.760;  439.433
435.190;   62.758;   75.761;  295.431
435.479;  -32.248;  -52.245;   83.441
435.767;  -99.247; -411.244; -427.561
436.056; -134.145; -340.242; -294.563
436.345; -104.443; -372.240; -223.568
436.633;   59.047;   60.750;  383.450
436.922;   98.357;  208.760;  414.432
437.210;  -51.939; -194.236;    1.426
437.499; -158.138; -583.235; -432.576
437.787; -114.339; -339.236;  -10.574
438.075;   27.459;   56.761;  162.430
438.364;  -20.441;  -44.238;  250.429
438.652;  -79.429; -286.226; -138.592
438.941;   -3.433;    3.770;  269.415
439.229; -187.255; -665.252; -466.545
439.517;  -72.137; -160.234;  -85.577
439.806; -161.627; -501.225; -290.595
440.094;   56.164;  377.766;  650.421
440.382; -128.036; -653.233; -302.580
440.670; -105.138; -361.235; -285.576
440.959; -117.525; -347.223; -170.599
441.247;  -60.132; -151.229; -109.587
441.535;  -15.138; -266.235;   31.423
441.823; -149.337; -497.234; -305.578
442.111;   63.569;  173.771;  327.412
442.400; -154.248; -628.245; -335.559
442.688;  -36.637; -111.234; -620.579
442.976; -215.615; -786.213; -450.617
443.264; -114.327; -324.224; -364.597
443.552;  -81.829; -258.226;   51.408
443.840;  172.762;  602.765;  876.423
444.128;   75.364;  265.767;  269.420
444.416; -164.231; -694.228; -312.588
444.704; -104.822; -465.219;  -92.605
444.992;  -38.529;   -0.226;  240.407
445.280; -121.233; -517.230;  -94.585
445.568; -160.815; -694.212; -396.618
445.856;  -68.424; -174.221;  357.398
446.143;  -62.222;  -54.220;   -7.604
446.431;   21.469;  -25.228;  625.411
446.719;  141.680;  489.783;  675.391
447.007;  111.566;  481.769;  705.416
447.295;  128.874;  597.777;  871.402
447.583; -105.432; -464.229;  -34.587
447.870; -102.024; -434.221; -202.601
448.158;  -51.133; -104.230;  129.415
448.446; -171.922; -800.219; -338.604
448.733;  -59.826;   13.776;  269.403
449.021;   -1.915;   60.788;  341.382
449.309;  -54.513; -296.210;  208.379
449.596;   56.680;  128.783;   59.392
449.884; -158.925; -571.222; -325.600
450.172; -208.630; -756.227; -406.590
450.459;  136.783;  645.786;  780.387
450.747; -177.620; -411.218; -147.608
451.034;  170.069;  493.772;  889.411
451.322; -125.317; -413.214; -170.614
451.609;   57.474;  292.777;  508.403
451.897; -143.206; -550.203; -183.634
452.184; -194.426; -622.223; -400.598
452.472;   -1.611;   97.792;  269.375
452.759;  135.778;  512.781;  864.395
453.047; -142.315; -407.212; -125.617
453.334; -169.321; -732.219; -216.606
453.621; -123.616; -438.214; -161.615
453.909;    0.993;   13.796;  384.368
454.196;  -85.601; -299.199; -123.641
454.483;   18.296;  317.798;  540.364
454.771;  -65.910; -215.208;  196.374
455.058;  -61.110; -316.207;  102.374
455.345;  -18.995;   71.807;  344.347
455.632;  -38.909; -128.207;  235.373
455.919;  -18.899;  -82.196;  182.354
456.207; -233.301; -774.198; -450.642
456.494; -139.703; -475.200;  -66.639
456.781; -150.605; -399.202; -198.635
457.068;  -61.109; -253.206;  -29.628
457.355; -152.409; -698.206; -401.629
457.642; -159.708; -552.205; -290.630
457.929; -202.596; -778.194; -417.651
458.216; -186.915; -575.212; -354.617
458.503;  -61.796; -173.193;  -19.652
458.790; -229.310; -864.208; -630.625
459.077;  -66.104;  -77.202;  110.364
459.364; -145.497; -350.195; -210.649
459.651;   -9.609;  -46.206;  220.372
459.938; -247.012; -864.209; -665.623
460.225;   17.796;  132.799;  276.363
460.512; -243.699; -836.197; -688.645
460.799;    7.980;  -32.218;  320.392
461.086; -130.102; -370.200; -251.640
461.372; -160.001; -509.198; -279.642
461.659;  -42.099; -165.196;  108.354
461.946;  -90.696; -445.193;  -54.651
462.233;  222.197;  842.800;  888.361
462.519; -213.803; -814.201; -464.639
462.806; -198.599; -768.197; -497.645
463.093; -119.393; -445.191;  -66.656
463.380; -234.389; -920.186; -824.664
463.666;  -71.199; -259.197;  -18.646
463.953;  -87.098; -406.195; -243.648
464.239;  -77.998; -173.195;  -77.648
464.526;  144.904;  413.806;  743.350
464.813; -149.592; -565.190; -304.658
465.099;  120.104;  606.807;  607.348
465.386;  219.505;  903.807;  921.348
465.672; -198.499; -694.197; -522.645
465.959; -175.190; -598.188; -520.662
466.245; -139.895; -468.193; -359.652
466.532;  -36.398; -109.195;   63.352
466.818;  -98.689; -357.186; -216.664
467.104; -182.284; -488.182; -415.672
467.391; -155.892; -628.189; -459.658
467.677;  -84.388; -289.186;    9.335
467.964; -166.491; -682.189; -471.660
468.250; -112.288; -331.186; -160.665
468.536;    9.208;   90.811;  180.341
468.822; -217.787; -821.184; -574.668
469.109;  132.925;  351.827;  471.311
469.395;  182.706;  729.808;  787.346
469.681;   32.609;   46.811;  156.341
469.967; -168.491; -699.188; -382.660
470.254;  -79.090; -494.188; -306.662
470.540; -172.699; -601.196; -476.646
470.826; -146.883; -488.181; -397.675
471.112;   51.614;  288.816;  113.331
471.398;  -53.086; -253.183;  -58.670
471.684; -175.879; -626.177; -447.680
471.970; -265.482; -918.180; -981.675
472.256; -138.394; -521.192; -441.654
472.542; -153.773; -499.171; -434.691
472.828; -191.984; -743.182; -607.672
473.114; -131.668; -380.166; -283.700
473.400; -148.878; -504.175; -293.684
473.686; -108.468; -452.166; -400.701
473.972;  -53.576; -230.174; -131.687
474.258; -243.775; -925.173; -843.689
474.544;  -31.680; -183.178;   -2.679
474.830;   12.623;  -65.175;   45.316
475.116;  -81.392; -123.190; -196.658
475.401; -135.782; -558.180; -467.676
475.687; -205.382; -725.180; -718.676
475.973; -188.784; -673.181; -770.673
476.259;  159.523;  736.825;  764.315
476.544; -148.779; -539.176; -437.682
476.830; -118.574; -398.172; -322.690
477.116;  -86.179; -430.177; -336.682
477.401;  124.418;  346.820;  358.324
477.687; -120.378; -289.175; -405.684
477.973;   -8.283;   21.819;   28.326
478.258; -125.065; -448.163; -348.706
478.544;   -0.587;   21.815;   61.334
478.829; -212.473; -818.171; -738.692
479.115; -187.374; -749.172; -651.690
479.401; -109.476; -444.174; -449.686
479.686;  -49.782; -253.180;  -74.676
479.972; -244.480; -886.178; -776.680
480.257;  -71.968; -258.166;  -65.700
480.542; -154.672; -614.170; -469.693
480.828;  326.122; 1288.824; 1392.317
481.113; -126.178; -464.176; -426.683
481.399;  -48.063; -236.161; -202.711
481.684; -161.868; -620.166; -462.700
481.969;  -24.861; -158.159;  -73.713
482.255; -122.571; -439.169; -285.695
482.540; -152.180; -569.178; -441.680
482.825; -109.589; -395.187; -404.663
483.110;  -19.071;  -85.169; -105.696
483.396; -194.059; -840.157; -652.718
483.681;  167.124;  543.826;  730.313
483.966; -197.962; -696.160; -700.712
484.251; -108.776; -404.174; -310.687
484.536; -109.267; -356.165; -378.703
484.822;  -83.876; -205.173; -218.687
485.107; -167.354; -599.152; -502.726
485.392;  167.234;  662.836;  541.296
485.677;   36.130;  354.832;  163.302
485.962;   38.641;  160.843;  270.283
486.247;  -10.264;  -14.162;   -8.707
486.532;  -97.968; -178.166; -325.701
486.817;   91.337;  381.839;  431.291
487.102; -154.656; -453.154; -514.722
487.387; -156.358; -637.156; -652.718
487.672;  -27.866; -154.164;  -38.705
487.957;  -98.162; -394.160; -286.711
488.241;  -71.752; -290.150; -314.729
488.526;  -60.454; -280.152; -148.726
488.811; -241.180; -881.177; -818.680
489.096; -208.056; -666.154; -702.723
489.381;   -5.154;    3.847;  162.275
489.666; -129.463; -428.161; -510.710
489.950;  147.445;  558.846;  627.277
490.235; -126.053; -480.151; -458.728
490.520; -184.763; -756.161; -723.710
490.804; -218.158; -827.156; -736.719
491.089; -118.150; -469.149; -299.732
491.374;  -27.766; -132.164;  -75.704
491.658; -240.949; -817.147; -717.735
491.943; -196.553; -657.152; -609.727
492.227;  -67.857; -178.155;  -38.721
492.512;  -90.859; -294.157; -341.717
492.797; -225.351; -713.149; -716.731
493.081; -169.049; -588.147; -598.735
493.366; -203.463; -751.161; -635.711
493.650;  240.857;  831.859;  917.254
493.935; -154.649; -648.147; -447.734
494.219; -197.644; -778.142; -687.743
494.503; -187.052; -585.150; -487.730
494.788;  -12.760;   46.842;   74.285
495.072;   69.948;  184.850;  434.271
495.356; -128.850; -463.148; -343.733
495.641; -238.548; -812.146; -736.736
495.925; -241.658; -976.156; -903.719
496.209; -133.950; -599.149; -451.732
496.494; -172.244; -763.142; -544.744
496.778;  -90.556; -364.154; -360.722
497.062; -176.958; -819.156; -627.719
497.346; -233.362; -869.160; -640.711
497.631;  143.850;  580.852;  560.266
497.915;   10.553;  -64.145;  175.261
498.199;  -97.359; -341.157; -277.718
498.483; -134.954; -562.152; -508.725
498.767;  102.948;  301.850;  300.271
499.051;  -29.251; -126.149; -100.732
499.335; -193.551; -693.149; -739.731
499.619; -148.631; -381.129; -423.767
499.903;  -64.557; -272.155;  -65.721
500.187; -142.255; -588.153; -316.724
500.471; -222.754; -796.152; -595.727
500.755;  -31.763;   62.839;  -96.710
501.039;  -81.857; -270.155; -357.721
501.323;   10.558;  -21.141;  264.254
501.607; -103.165; -447.163; -503.706
501.891; -153.458; -607.156; -512.718
502.174; -183.546; -726.144; -585.741
502.458;   11.447;   89.849;  370.273
502.742;  -58.040; -180.138; -191.751
503.026;  -77.549; -412.147; -254.734
503.310; -105.161; -437.159; -375.713
503.593; -141.549; -464.147; -325.735
503.877;  -81.535; -232.133; -156.760
504.161;  -54.955;    2.847;  -50.724
504.444; -226.760; -841.158; -710.716
504.728; -197.666; -487.164; -522.704
505.012;  -53.752; -257.150;  -76.729
505.295;  -93.363; -417.161; -212.711
505.579;  -89.758; -256.156; -496.719
505.862; -160.047; -555.145; -333.738
506.146; -175.861; -681.159; -758.714
506.429;  108.239;  568.841;  461.286
506.713; -179.253; -732.151; -667.728
506.996;    7.344;   90.846;  295.278
507.280; -150.167; -633.165; -474.703
507.563; -136.157; -469.155; -261.721
507.847; -146.555; -423.153; -112.724
508.130; -163.462; -665.161; -456.711
508.413; -168.869; -758.167; -577.700
508.697;  -50.469; -151.167;   12.300
508.980; -114.955; -422.153; -312.724
509.263; -158.257; -466.155; -450.720
509.547;  -22.752; -124.150;   82.271
509.830;  -17.562; -172.160;  140.289
510.113;   17.242;  128.844;  298.281
510.396; -134.654; -530.152; -300.725
510.680; -246.347; -818.145; -812.738
510.963;   35.844;  184.846;  180.277
511.246; -121.151; -493.150; -357.730
511.529;  -91.646; -482.145;  -83.739
511.812;  -33.835; -250.134;   10.241
512.095; -179.553; -740.151; -396.728
512.378;  -72.249; -317.147; -245.736
512.661; -198.639; -703.137; -623.753
512.944; -183.744; -750.142; -637.744
513.227;  -82.439; -170.137; -171.752
513.510; -131.946; -479.144; -671.741
513.793; -170.142; -485.140; -435.747
514.076;  -16.629;  -43.127;  -39.771
514.359;  -67.750; -294.149; -135.732
514.642; -148.244; -442.142; -567.744
514.925;  105.858;  581.860;  561.253
515.208; -138.436; -498.134; -443.758
515.491;  -64.434; -276.133; -182.761
515.773; -126.445; -410.143; -337.742
516.056;   57.362;  249.864;  409.246
516.339; -212.438; -754.136; -652.755
516.622; -148.952; -518.150; -488.730
516.904;  221.256;  882.857;  975.257
517.187; -193.639; -730.138; -523.752
517.470; -156.044; -568.143; -510.743
517.752; -165.337; -624.136; -470.756
518.035; -181.841; -708.139; -725.749
518.318; -243.238; -799.136; -744.755
518.600;  -89.134; -300.132; -325.762
518.883;   13.356;  310.858;   88.256
519.165; -159.340; -585.138; -426.751
519.448;  -11.434;  -61.132;  -19.762
519.730; -206.428; -573.126; -415.773
520.013;  143.365;  588.867;  664.240
520.295;  -38.135;  -94.134;  -15.759
520.578; -117.232; -335.131; -305.764
520.860;  -39.834; -254.132;   56.238
521.143; -205.137; -763.135; -584.756
521.425;  -86.826; -251.125; -279.775
521.707; -159.629; -622.127; -380.771
521.990;   14.172; -199.127;  167.229
522.272;  -49.242; -116.140;   -4.748
522.554;  -79.745; -237.143; -157.742
522.836;  -47.535;  -24.134;   99.241
523.119; -128.449; -496.148; -189.734
523.401; -149.232; -448.130; -314.766
523.683; -227.239; -865.137; -693.753
523.965;   42.760;  408.862;  260.248
524.247;  -15.524;   54.878;  170.220
524.529; -140.035; -451.134; -367.759
524.812;  -19.331;   -3.130;  191.234
525.094; -222.440; -773.138; -631.751
525.376;  -43.225; -143.124;   78.223
525.658; -121.938; -441.136; -339.754
525.940; -223.533; -805.131; -671.764
526.222;  -92.338; -188.136;  -88.755
526.504;  -50.433; -190.131;   32.237
526.786; -238.435; -960.133; -647.760
527.068; -102.525; -124.123;  -67.778
527.349; -249.038; -865.137; -774.754
527.631;  -35.534; -137.132;   22.238
527.913; -167.429; -664.127; -450.771
528.195; -260.027; -761.125; -639.774
528.477;  -62.036;  -93.134;  -30.758
528.759; -223.631; -648.130; -522.766
529.040; -169.925; -569.123; -293.778
529.322; -121.127; -235.125;  -10.774
529.604;  -51.731;  -47.130;   93.233
529.886; -157.628; -546.126; -302.773
530.167;    1.568;  232.870;  192.235
530.449;  -22.849;    1.853;   63.265
530.731; -179.424; -572.122; -459.779
531.012; -159.821; -513.120; -216.784
531.294;  -68.717; -118.116;  -43.792
531.575;   61.274;  290.875;  538.225
531.857; -182.036; -548.135; -266.757
532.138;  -76.443; -113.141;   40.254
532.420;   33.663;  294.865;  403.244
532.701; -235.835; -722.133; -751.760
532.983;   63.066;  232.867;  182.239
533.264;  -43.728; -243.126;  175.228
533.546; -159.238; -491.136; -508.755
533.827;   18.565;  173.867;   -1.759
534.109; -132.936; -352.135;  -80.757
534.390; -225.333; -725.132; -582.762
534.671;  -59.537; -270.135;  -82.756
534.953; -218.324; -751.123; -611.779
535.234; -145.519; -426.117; -255.789
535.515; -249.821; -891.119; -735.785
535.796; -158.129; -431.128; -193.770
536.078; -310.225;-1050.124; -904.777
536.359;  -62.124;  -22.123;    3.221
536.640; -138.627; -480.125; -197.774
536.921;   16.969;  225.871;  143.232
537.202;  -72.940;  -87.138;  -16.751
537.483;   10.268;  251.869;  377.236
537.764;  -15.632;   17.870;   98.235
538.045; -166.636; -543.134; -371.758
538.326; -180.430; -596.129; -447.768
538.607; -232.828; -686.127; -476.771
538.888;  -23.523;   98.879;    5.218
