
Integration time [ms]: 100.000
Averaging Nr. [scans]: 40
Smoothing Nr. [pixels]: 0
Data measured with spectrometer [name]: 2101013U2
Wave   ;Sample   ;Dark     ;Reference
[nm]   ;[counts] ;[counts] ;[counts] 

394.013;   41.970; -450.257; -315.536
394.305;  195.692; -461.258; -419.536
394.596; 1581.218; -676.269; -527.514
394.887; 4171.538; -796.268; -654.518
395.178; 1476.000;  145.736;   11.476
395.470;   79.313; -210.263; -356.526
395.761;  148.231;  305.734;  394.479
396.052;  159.241; -545.284; -306.489
396.343;  117.401; -557.276; -454.503
396.634;   60.288; -200.279; -290.497
396.926;   32.410; -618.268; -565.517
397.217;   69.581;   11.725;  -17.504
397.508;   33.700; -366.273; -154.507
397.799;   24.988; -555.279; -571.497
398.090;   11.206; -973.280; -902.495
398.381;   83.700;   11.708;  -11.473
398.672;  -23.448; -585.292; -742.473
398.963;   39.295; -348.279; -373.498
399.254;   89.262;   54.709; -209.475
399.545;  -18.673;-1017.266; -883.520
399.836;   47.362; -407.277; -343.501
400.127;   45.721; -205.295; -209.468
400.418;   33.318; -423.274; -392.506
400.709;   31.090; -359.281; -333.493
401.000;   33.642; -268.291; -309.476
401.290;  108.295;  225.698;  115.545
401.581;   73.395; -166.286; -228.485
401.872;   21.688; -542.298; -486.462
402.163;   60.787; -313.296; -252.467
402.454;  118.838; -123.291; -163.475
402.744;   44.077; -844.297; -813.465
403.035;  265.965; -226.293;  -86.471
403.326;  366.605; -366.292; -384.474
403.617;  340.431;  204.701;  165.539
403.907;  351.298; -593.283; -679.490
404.198; 3607.814; -545.307; -599.446
404.489; 9172.429; -618.283; -588.491
404.779; 2591.274; -618.302; -660.456
405.070;  290.923;  -67.304; -174.451
405.360;  504.192; -259.293; -238.472
405.651;  469.762;  125.699;   98.542
405.942;  179.989;  209.714;  127.516
406.232;   99.982; -432.285; -413.487
406.523;  267.508;  641.706;  758.530
406.813;   46.792; -579.286; -644.484
407.104;  194.799;  261.708;  144.527
407.394;   82.757; -604.299; -591.462
407.685;  144.681;  336.715;  222.513
407.975;   61.302; -400.283; -382.490
408.265;   99.181; -134.289; -190.478
408.556;   62.135; -472.291; -459.475
408.846;  185.909;  474.706;  429.530
409.137;   98.916;   -1.288; -216.480
409.427;   87.707; -193.285; -271.487
409.717;   42.329; -776.273; -692.508
410.007;  136.074;    4.715; -170.486
410.298;  101.400; -360.295; -342.469
410.588;   92.278; -495.285; -510.486
410.878;   48.879; -792.287; -873.482
411.168;  118.240; -481.298; -478.463
411.459;  149.321; -295.283; -242.489
411.749;   89.358; -609.292; -507.474
412.039;   87.164; -755.289; -386.480
412.329;  234.954;   40.722;  132.501
412.619;  225.267;  -62.286; -148.485
412.909;  384.134;  639.711;  594.521
413.199;  326.481; -130.280; -251.495
413.490;  414.798;  521.710;  352.523
413.780;  206.936;-1013.279; -913.496
414.070;  398.527;  -46.276;  235.497
414.360;  404.899; -729.278; -666.498
414.650;  540.000; -726.288; -688.482
414.940;  763.710; -538.280; -441.496
415.230; 1235.796;   50.712;   74.519
415.520; 8638.867;  155.730;   66.486
415.809;34861.890; -305.281; -125.493
416.099;26217.365; -388.277; -229.501
416.389; 7707.341;  435.726;  236.494
416.679; 4465.268;   91.738;   85.473
416.969;  776.710; -527.287; -503.483
417.259;  643.413;  341.721;  171.503
417.549;  874.763;  522.718;  318.508
417.838; 2401.137; -205.268; -147.518
418.128; 8277.029;  650.710;  492.522
418.418; 6810.937; -491.272; -579.509
418.708; 4488.691;    9.726;  -48.506
418.997;17702.986; -474.275; -480.505
419.287;18047.649; -733.273; -790.507
419.577;17552.145; -160.283; -123.489
419.866;56278.813; -588.277; -498.501
420.156;54898.587; -242.270;  -55.513
420.446; 9197.784; -112.263;  -26.526
420.735;  904.404; -376.271; -446.512
421.025;  923.073; 1830.722;  315.502
421.314;  576.602; -203.271; -226.512
421.604;  821.628;   89.732;  233.484
421.893;  486.698; -705.271; -602.511
422.183;  289.534; -487.263; -461.526
422.472;  401.174;  -36.271; -107.511
422.762;  429.684; -416.266; -379.521
423.051;  278.452; -916.276; -916.503
423.341;  349.577; -491.273; -439.507
423.630;  421.116; -121.265;   15.477
423.919;  434.760;   58.725;   49.495
424.209;  475.240;  -31.263;   56.473
424.498;  650.009;   68.732;  161.483
424.787; 1491.942; -535.267; -601.518
425.077; 4414.389;   34.735;   29.478
425.366; 4943.872; -734.262; -744.528
425.655;13489.902;  639.727;  259.493
425.945;33962.628; -313.247; -268.554
426.234;17997.375;  117.741;  300.467
426.523; 7428.806;  -86.259; -350.534
426.812;10021.479;  107.734;  159.480
427.101;14952.874; -127.269; -323.515
427.390;17599.141;  -55.270;  -86.514
427.680; 2705.680; -624.257; -411.538
427.969;  518.968; -330.255; -301.540
428.258;  360.070; -385.257; -477.536
428.547;  530.342;  449.728;  397.490
428.836;  850.287; -421.253; -398.543
429.125; 1174.158; -199.259;  -72.534
429.414;  826.740; -330.251; -294.548
429.703; 4524.690; -231.251; -213.548
429.992;14101.319; -938.250; -828.549
430.281; 8939.875; -397.264; -331.524
430.570;  616.928;  -21.252;   32.454
430.859;  444.855;  279.741;  352.466
431.148;  428.273;  636.752;  631.446
431.437;  321.778;  391.748;  367.454
431.725;  194.871; -544.257; -481.536
432.014;  208.971; -845.253; -756.545
432.303;  423.515; -149.239; -105.569
432.592;  568.058; -460.263; -178.525
432.881; 1458.075; -601.248; -437.554
433.169; 9512.919; -343.255;  -61.540
433.458;19367.506;  445.765;  540.424
433.747; 7579.004; -397.261; -289.529
434.036;  945.036; -275.242; -280.564
434.324; 2917.234; -395.249; -379.551
434.613; 5249.478;   40.757;  159.437
434.902; 1509.803;  333.760;  439.433
435.190;  341.413;   75.761;  295.431
435.479;  185.131;  -52.245;   83.441
435.767;   97.541; -411.244; -427.561
436.056;  223.481; -340.242; -294.563
436.345;  478.631; -372.240; -223.568
436.633;  456.353;   60.750;  383.450
436.922;  208.759;  208.760;  414.432
437.210;  270.494; -194.236;    1.426
437.499;  713.578; -583.235; -432.576
437.787;  784.118; -339.236;  -10.574
438.075;  230.420;   56.761;  162.430
438.364;  259.698;  -44.238;  250.429
438.652;  137.500; -286.226; -138.592
438.941;   78.281;    3.770;  269.415
439.229;  -17.025; -665.252; -466.545
439.517;   14.914; -160.234;  -85.577
439.806;   -9.031; -501.225; -290.595
440.094;  141.623;  377.766;  650.421
440.382;   59.302; -653.233; -302.580
440.670;   73.553; -361.235; -285.576
440.959;    2.565; -347.223; -170.599
441.247;   34.845; -151.229; -109.587
441.535;   48.087; -266.235;   31.423
441.823;    1.069; -497.234; -305.578
442.111;  158.350;  173.771;  327.412
442.400;  338.830; -628.245; -335.559
442.688;  667.522; -111.234; -620.579
442.976;  361.046; -786.213; -450.617
443.264;   47.777; -324.224; -364.597
443.552;   58.951; -258.226;   51.408
443.840;  134.535;  602.765;  876.423
444.128;   92.876;  265.767;  269.420
444.416;  -10.172; -694.228; -312.588
444.704;   23.951; -465.219;  -92.605
444.992;   55.880;   -0.226;  240.407
445.280;   25.207; -517.230;  -94.585
445.568;    8.725; -694.212; -396.618
445.856;  172.682; -174.221;  357.398
446.143;  334.146;  -54.220;   -7.604
446.431;  283.458;  -25.228;  625.411
446.719;  179.174;  489.783;  675.391
447.007;  152.675;  481.769;  705.416
447.295;  167.411;  597.777;  871.402
447.583;   92.092; -464.229;  -34.587
447.870;  116.478; -434.221; -202.601
448.158;  287.056; -104.230;  129.415
448.446;  158.073; -800.219; -338.604
448.733;  147.154;   13.776;  269.403
449.021;  185.700;   60.788;  341.382
449.309;  170.068; -296.210;  208.379
449.596;  225.020;  128.783;   59.392
449.884;  188.270; -571.222; -325.600
450.172;  259.214; -756.227; -406.590
450.459;  641.951;  645.786;  780.387
450.747; 3743.943; -411.218; -147.608
451.034;12063.409;  493.772;  889.411
451.322; 9652.105; -413.214; -170.614
451.609;  732.855;  292.777;  508.403
451.897;  880.844; -550.203; -183.634
452.184; 2735.062; -622.223; -400.598
452.472; 2411.019;   97.792;  269.375
452.759;  353.548;  512.781;  864.395
453.047;   90.447; -407.212; -125.617
453.334;   35.508; -732.219; -216.606
453.621;   45.832; -438.214; -161.615
453.909;   91.760;   13.796;  384.368
454.196;   91.089; -299.199; -123.641
454.483;  223.960;  317.798;  540.364
454.771;  143.023; -215.208;  196.374
455.058;   56.727; -316.207;  102.374
455.345;  139.556;   71.807;  344.347
455.632;  126.181; -128.207;  235.373
455.919;   59.817;  -82.196;  182.354
456.207;  -34.505; -774.198; -450.642
456.494;   -3.500; -475.200;  -66.639
456.781;   26.430; -399.202; -198.635
457.068;   73.188; -253.206;  -29.628
457.355;   -2.710; -698.206; -401.629
457.642;   24.571; -552.205; -290.630
457.929;   29.295; -778.194; -417.651
458.216;  107.772; -575.212; -354.617
458.503;  361.826; -173.193;  -19.652
458.790;  406.145; -864.208; -630.625
459.077;  371.311;  -77.202;  110.364
459.364; 1184.162; -350.195; -210.649
459.651; 2542.436;  -46.206;  220.372
459.938; 1152.558; -864.209; -665.623
460.225;  123.815;  132.799;  276.363
460.512;  -40.662; -836.197; -688.645
460.799;  132.366;  -32.218;  320.392
461.086;   90.230; -370.200; -251.640
461.372;   16.745; -509.198; -279.642
461.659;   61.118; -165.196;  108.354
461.946;   40.924; -445.193;  -54.651
462.233;  216.902;  842.800;  888.361
462.519;  494.648; -814.201; -464.639
462.806; 1515.964; -768.197; -497.645
463.093; 1293.074; -445.191;  -66.656
463.380;   -0.851; -920.186; -824.664
463.666;   46.141; -259.197;  -18.646
463.953;  118.056; -406.195; -243.648
464.239;  263.530; -173.195;  -77.648
464.526;  401.044;  413.806;  743.350
464.813;  346.838; -565.190; -304.658
465.099;  322.151;  606.807;  607.348
465.386;  254.205;  903.807;  921.348
465.672;   19.214; -694.197; -522.645
465.959;   17.860; -598.188; -520.662
466.245;    5.330; -468.193; -359.652
466.532;   52.628; -109.195;   63.352
466.818;   38.224; -357.186; -216.664
467.104;  -17.003; -488.182; -415.672
467.391;  -20.059; -628.189; -459.658
467.677;   33.728; -289.186;    9.335
467.964;  -19.027; -682.189; -471.660
468.250;   37.581; -331.186; -160.665
468.536;   69.967;   90.811;  180.341
468.822;  -27.254; -821.184; -574.668
469.109;  139.345;  351.827;  471.311
469.395;  202.717;  729.808;  787.346
469.681;  233.246;   46.811;  156.341
469.967; 1804.651; -699.188; -382.660
470.254; 4013.636; -494.188; -306.662
470.540; 2474.266; -601.196; -476.646
470.826;  360.611; -488.181; -397.675
471.112;  403.400;  288.816;  113.331
471.398;   89.006; -253.183;  -58.670
471.684;   42.695; -626.177; -447.680
471.970;   24.390; -918.180; -981.675
472.256;   45.391; -521.192; -441.654
472.542;   17.958; -499.171; -434.691
472.828;   23.292; -743.182; -607.672
473.114;   18.136; -380.166; -283.700
473.400;   23.015; -504.175; -293.684
473.686;   43.543; -452.166; -400.701
473.972;   64.783; -230.174; -131.687
474.258;  -17.330; -925.173; -843.689
474.544;  316.035; -183.178;   -2.679
474.830;  487.817;  -65.175;   45.316
475.116;  770.890; -123.190; -196.658
475.401; 1054.068; -558.180; -467.676
475.687;  281.592; -725.180; -718.676
475.973;  -31.773; -673.181; -770.673
476.259;  248.295;  736.825;  764.315
476.544;  515.255; -539.176; -437.682
476.830; 1303.703; -398.172; -322.690
477.116; 1148.653; -430.177; -336.682
477.401;  158.893;  346.820;  358.324
477.687;  -26.010; -289.175; -405.684
477.973;   51.806;   21.819;   28.326
478.258;  -13.082; -448.163; -348.706
478.544;   31.338;   21.815;   61.334
478.829;  -54.760; -818.171; -738.692
479.115;  -58.772; -749.172; -651.690
479.401;  -19.823; -444.174; -449.686
479.686;   53.166; -253.180;  -74.676
479.972;   -9.309; -886.178; -776.680
480.257;   44.538; -258.166;  -65.700
480.542;   10.969; -614.170; -469.693
480.828;  229.438; 1288.824; 1392.317
481.113;  -34.665; -464.176; -426.683
481.399;   13.322; -236.161; -202.711
481.684;  -44.413; -620.166; -462.700
481.969;   18.163; -158.159;  -73.713
482.255;  -10.193; -439.169; -285.695
482.540;    5.417; -569.178; -441.680
482.825;   22.243; -395.187; -404.663
483.110;  144.211;  -85.169; -105.696
483.396;  338.464; -840.157; -652.718
483.681;  731.058;  543.826;  730.313
483.966;  283.431; -696.160; -700.712
484.251;    2.631; -404.174; -310.687
484.536;   16.800; -356.165; -378.703
484.822;   42.235; -205.173; -218.687
485.107;  -11.940; -599.152; -502.726
485.392;  127.882;  662.836;  541.296
485.677;   73.798;  354.832;  163.302
485.962;   97.786;  160.843;  270.283
486.247;  100.303;  -14.162;   -8.707
486.532;   68.139; -178.166; -325.701
486.817;  172.640;  381.839;  431.291
487.102;  145.365; -453.154; -514.722
487.387; 1023.991; -637.156; -652.718
487.672; 1895.838; -154.164;  -38.705
487.957; 1157.499; -394.160; -286.711
488.241;  323.830; -290.150; -314.729
488.526; 1134.862; -280.152; -148.726
488.811; 1915.394; -881.177; -818.680
489.096; 1336.343; -666.154; -702.723
489.381;  687.757;    3.847;  162.275
489.666;  605.421; -428.161; -510.710
489.950;  197.222;  558.846;  627.277
490.235;  -22.776; -480.151; -458.728
490.520;  -39.880; -756.161; -723.710
490.804;  -42.456; -827.156; -736.719
491.089;   16.299; -469.149; -299.732
491.374;   28.711; -132.164;  -75.704
491.658;   -5.112; -817.147; -717.735
491.943;  127.592; -657.152; -609.727
492.227;  215.510; -178.155;  -38.721
492.512;   26.886; -294.157; -341.717
492.797;  -40.133; -713.149; -716.731
493.081;  -52.658; -588.147; -598.735
493.366;  -22.903; -751.161; -635.711
493.650;  218.006;  831.859;  917.254
493.935;   69.138; -648.147; -447.734
494.219;  -25.460; -778.142; -687.743
494.503;  -37.139; -585.150; -487.730
494.788;   40.025;   46.842;   74.285
495.072;  126.457;  184.850;  434.271
495.356;  220.878; -463.148; -343.733
495.641;  533.275; -812.146; -736.736
495.925;  464.250; -976.156; -903.719
496.209;   24.274; -599.149; -451.732
496.494;  -39.209; -763.142; -544.744
496.778;   20.590; -364.154; -360.722
497.062;  -49.001; -819.156; -627.719
497.346;   14.576; -869.160; -640.711
497.631;  164.208;  580.852;  560.266
497.915;   81.387;  -64.145;  175.261
498.199;   41.514; -341.157; -277.718
498.483;   35.910; -562.152; -508.725
498.767;  232.908;  301.850;  300.271
499.051;  274.496; -126.149; -100.732
499.335;   58.719; -693.149; -739.731
499.619;  -38.447; -381.129; -423.767
499.903;    3.608; -272.155;  -65.721
500.187;   37.198; -588.153; -316.724
500.471;   21.641; -796.152; -595.727
500.755;   93.171;   62.839;  -96.710
501.039;  -10.341; -270.155; -357.721
501.323;   66.833;  -21.141;  264.254
501.607;   26.768; -447.163; -503.706
501.891;    0.441; -607.156; -512.718
502.174;  -33.224; -726.144; -585.741
502.458;   59.571;   89.849;  370.273
502.742;   51.012; -180.138; -191.751
503.026;  193.637; -412.147; -254.734
503.310;  296.712; -437.159; -375.713
503.593;  198.639; -464.147; -325.735
503.877;  143.685; -232.133; -156.760
504.161;  187.026;    2.847;  -50.724
504.444;  188.978; -841.158; -710.716
504.728;  745.735; -487.164; -522.704
505.012; 1058.480; -257.150;  -76.729
505.295;  764.622; -417.161; -212.711
505.579;  793.924; -256.156; -496.719
505.862; 1216.208; -555.145; -333.738
506.146; 1211.790; -681.159; -758.714
506.429;  558.065;  568.841;  461.286
506.713;  117.126; -732.151; -667.728
506.996;  488.214;   90.846;  295.278
507.280;  535.279; -633.165; -474.703
507.563;  350.356; -469.155; -261.721
507.847;  168.799; -423.153; -112.724
508.130;  183.273; -665.161; -456.711
508.413;  217.757; -758.167; -577.700
508.697;  368.782; -151.167;   12.300
508.980;  261.701; -422.153; -312.724
509.263;   34.777; -466.155; -450.720
509.547;   49.779; -124.150;   82.271
509.830;   45.450; -172.160;  140.289
510.113;   87.849;  128.844;  298.281
510.396;   54.408; -530.152; -300.725
510.680;   50.009; -818.145; -812.738
510.963;  259.970;  184.846;  180.277
511.246;  183.889; -493.150; -357.730
511.529;  299.165; -482.145;  -83.739
511.812;  605.531; -250.134;   10.241
512.095;  434.598; -740.151; -396.728
512.378;   94.344; -317.147; -245.736
512.661;   66.646; -703.137; -623.753
512.944;   78.968; -750.142; -637.744
513.227;   95.293; -170.137; -171.752
513.510;   54.201; -479.144; -671.741
513.793;   47.813; -485.140; -435.747
514.076;  145.778;  -43.127;  -39.771
514.359;  159.900; -294.149; -135.732
514.642;  134.621; -442.142; -567.744
514.925; 1092.111;  581.860;  561.253
515.208; 1576.977; -498.134; -443.758
515.491; 1011.769; -276.133; -182.761
515.773;  576.155; -410.143; -337.742
516.056; 3200.904;  249.864;  409.246
516.339; 4158.283; -754.136; -652.755
516.622; 2055.236; -518.150; -488.730
516.904;  641.489;  882.857;  975.257
517.187;  254.466; -730.138; -523.752
517.470;  413.837; -568.143; -510.743
517.752;  687.137; -624.136; -470.756
518.035;  565.826; -708.139; -725.749
518.318;  600.459; -799.136; -744.755
518.600; 3789.448; -300.132; -325.762
518.883; 5257.921;  310.858;   88.256
519.165; 2408.407; -585.138; -426.751
519.448;  450.072;  -61.132;  -19.762
519.730;  203.187; -573.126; -415.773
520.013;  244.989;  588.867;  664.240
520.295;  382.158;  -94.134;  -15.759
520.578;  798.338; -335.131; -305.764
520.860; 1032.323; -254.132;   56.238
521.143;  710.964; -763.135; -584.756
521.425;  588.803; -251.125; -279.775
521.707;  972.029; -622.127; -380.771
521.990; 2708.429; -199.127;  167.229
522.272; 3137.890; -116.140;   -4.748
522.554; 1164.531; -237.143; -157.742
522.836;  279.806;  -24.134;   99.241
523.119;  201.336; -496.148; -189.734
523.401;  179.447; -448.130; -314.766
523.683;  145.772; -865.137; -693.753
523.965;  399.439;  408.862;  260.248
524.247;  417.828;   54.878;  170.220
524.529;  313.908; -451.134; -367.759
524.812;  464.999;   -3.130;  191.234
525.094; 1349.088; -773.138; -631.751
525.376; 2102.614; -143.124;   78.223
525.658; 1284.905; -441.136; -339.754
525.940;   77.959; -805.131; -671.764
526.222;   25.559; -188.136;  -88.755
526.504;   53.607; -190.131;   32.237
526.786;   54.861; -960.133; -647.760
527.068;  144.520; -124.123;  -67.778
527.349;   29.651; -865.137; -774.754
527.631;  136.247; -137.132;   22.238
527.913;  229.878; -664.127; -450.771
528.195;  310.394; -761.125; -639.774
528.477;  365.152;  -93.134;  -30.758
528.759;  264.499; -648.130; -522.766
529.040;  130.119; -569.123; -293.778
529.322;   73.548; -235.125;  -10.774
529.604;  116.226;  -47.130;   93.233
529.886;   44.462; -546.126; -302.773
530.167;   90.291;  232.870;  192.235
530.449;   48.743;    1.853;   63.265
530.731;   64.227; -572.122; -459.779
531.012;  134.952; -513.120; -216.784
531.294;  121.375; -118.116;  -43.792
531.575;  191.078;  290.875;  538.225
531.857;  131.121; -548.135; -266.757
532.138;  105.856; -113.141;   40.254
532.420;  125.916;  294.865;  403.244
532.701;  101.189; -722.133; -751.760
532.983;  239.443;  232.867;  182.239
533.264;   53.384; -243.126;  175.228
533.546;  -47.666; -491.136; -508.755
533.827;   40.060;  173.867;   -1.759
534.109;   32.796; -352.135;  -80.757
534.390;  108.977; -725.132; -582.762
534.671;  301.466; -270.135;  -82.756
534.953;  209.697; -751.123; -611.779
535.234;   51.981; -426.117; -255.789
535.515;  -56.212; -891.119; -735.785
535.796;    1.598; -431.128; -193.770
536.078; -100.587;-1050.124; -904.777
536.359;    3.973;  -22.123;    3.221
536.640;  -24.929; -480.125; -197.774
536.921;  172.333;  225.871;  143.232
537.202;  521.884;  -87.138;  -16.751
537.483;  662.538;  251.869;  377.236
537.764;  254.791;   17.870;   98.235
538.045;  -37.774; -543.134; -371.758
538.326;  -21.165; -596.129; -447.768
538.607;   60.580; -686.127; -476.771
538.888;  254.117;   98.879;    5.218
