
Integration time [ms]: 100.000
Averaging Nr. [scans]: 40
Smoothing Nr. [pixels]: 0
Data measured with spectrometer [name]: 2101013U2
Wave   ;Sample   ;Dark     ;Reference
[nm]   ;[counts] ;[counts] ;[counts] 

394.013;   51.462; -450.257; -315.536
394.305;  174.835; -461.258; -419.536
394.596; 1087.057; -676.269; -527.514
394.887; 2684.548; -796.268; -654.518
395.178; 1049.829;  145.736;   11.476
395.470;   78.690; -210.263; -356.526
395.761;  189.738;  305.734;  394.479
396.052;  229.081; -545.284; -306.489
396.343;  262.901; -557.276; -454.503
396.634;  103.320; -200.279; -290.497
396.926;  109.496; -618.268; -565.517
397.217;  105.881;   11.725;  -17.504
397.508;   56.971; -366.273; -154.507
397.799;   54.245; -555.279; -571.497
398.090;    6.764; -973.280; -902.495
398.381;  128.931;   11.708;  -11.473
398.672;   -0.393; -585.292; -742.473
398.963;   49.526; -348.279; -373.498
399.254;  120.141;   54.709; -209.475
399.545;  -34.365;-1017.266; -883.520
399.836;   63.765; -407.277; -343.501
400.127;   55.157; -205.295; -209.468
400.418;   52.641; -423.274; -392.506
400.709;   61.201; -359.281; -333.493
401.000;   49.345; -268.291; -309.476
401.290;  109.068;  225.698;  115.545
401.581;   72.764; -166.286; -228.485
401.872;   23.504; -542.298; -486.462
402.163;   54.799; -313.296; -252.467
402.454;   94.817; -123.291; -163.475
402.744;   76.991; -844.297; -813.465
403.035;  445.672; -226.293;  -86.471
403.326;  561.835; -366.292; -384.474
403.617;  382.948;  204.701;  165.539
403.907;  254.137; -593.283; -679.490
404.198; 2397.347; -545.307; -599.446
404.489; 6211.167; -618.283; -588.491
404.779; 2112.872; -618.302; -660.456
405.070;  228.275;  -67.304; -174.451
405.360;  340.624; -259.293; -238.472
405.651;  364.783;  125.699;   98.542
405.942;  199.984;  209.714;  127.516
406.232;  252.948; -432.285; -413.487
406.523;  475.667;  641.706;  758.530
406.813;  104.736; -579.286; -644.484
407.104;  338.854;  261.708;  144.527
407.394;  167.149; -604.299; -591.462
407.685;  152.773;  336.715;  222.513
407.975;   33.640; -400.283; -382.490
408.265;  115.181; -134.289; -190.478
408.556;   69.938; -472.291; -459.475
408.846;  163.568;  474.706;  429.530
409.137;   86.614;   -1.288; -216.480
409.427;   49.698; -193.285; -271.487
409.717;   42.800; -776.273; -692.508
410.007;  144.867;    4.715; -170.486
410.298;   77.909; -360.295; -342.469
410.588;   67.545; -495.285; -510.486
410.878;   24.826; -792.287; -873.482
411.168;  117.431; -481.298; -478.463
411.459;  125.635; -295.283; -242.489
411.749;   59.787; -609.292; -507.474
412.039;   52.438; -755.289; -386.480
412.329;  195.358;   40.722;  132.501
412.619;  204.561;  -62.286; -148.485
412.909;  389.984;  639.711;  594.521
413.199;  334.814; -130.280; -251.495
413.490;  406.274;  521.710;  352.523
413.780;  148.893;-1013.279; -913.496
414.070;  331.302;  -46.276;  235.497
414.360;  390.429; -729.278; -666.498
414.650;  420.122; -726.288; -688.482
414.940;  531.043; -538.280; -441.496
415.230;  923.144;   50.712;   74.519
415.520; 6112.331;  155.730;   66.486
415.809;23884.726; -305.281; -125.493
416.099;18764.142; -388.277; -229.501
416.389; 5179.414;  435.726;  236.494
416.679; 3054.269;   91.738;   85.473
416.969;  524.730; -527.287; -503.483
417.259;  593.445;  341.721;  171.503
417.549;  690.874;  522.718;  318.508
417.838; 1675.148; -205.268; -147.518
418.128; 5447.955;  650.710;  492.522
418.418; 4621.706; -491.272; -579.509
418.708; 3067.914;    9.726;  -48.506
418.997;11541.835; -474.275; -480.505
419.287;12102.896; -733.273; -790.507
419.577;11429.559; -160.283; -123.489
419.866;37600.515; -588.277; -498.501
420.156;38985.377; -242.270;  -55.513
420.446; 7092.236; -112.263;  -26.526
420.735;  877.296; -376.271; -446.512
421.025;  838.603; 1830.722;  315.502
421.314;  672.469; -203.271; -226.512
421.604; 1443.040;   89.732;  233.484
421.893;  839.240; -705.271; -602.511
422.183;  234.886; -487.263; -461.526
422.472;  379.642;  -36.271; -107.511
422.762;  420.191; -416.266; -379.521
423.051;  254.227; -916.276; -916.503
423.341;  307.923; -491.273; -439.507
423.630;  398.172; -121.265;   15.477
423.919;  395.859;   58.725;   49.495
424.209;  381.717;  -31.263;   56.473
424.498;  512.495;   68.732;  161.483
424.787; 1092.977; -535.267; -601.518
425.077; 3308.095;   34.735;   29.478
425.366; 4722.323; -734.262; -744.528
425.655; 9911.548;  639.727;  259.493
425.945;21510.927; -313.247; -268.554
426.234;12098.620;  117.741;  300.467
426.523; 5050.850;  -86.259; -350.534
426.812; 6968.062;  107.734;  159.480
427.101;10161.837; -127.269; -323.515
427.390;12887.031;  -55.270;  -86.514
427.680; 2943.920; -624.257; -411.538
427.969;  488.231; -330.255; -301.540
428.258;  319.437; -385.257; -477.536
428.547;  534.710;  449.728;  397.490
428.836; 1223.822; -421.253; -398.543
429.125; 1822.777; -199.259;  -72.534
429.414;  815.820; -330.251; -294.548
429.703; 3106.845; -231.251; -213.548
429.992; 9342.649; -938.250; -828.549
430.281; 6157.804; -397.264; -331.524
430.570;  595.461;  -21.252;   32.454
430.859;  545.375;  279.741;  352.466
431.148;  454.748;  636.752;  631.446
431.437;  303.635;  391.748;  367.454
431.725;  156.138; -544.257; -481.536
432.014;  108.755; -845.253; -756.545
432.303;  387.299; -149.239; -105.569
432.592;  600.761; -460.263; -178.525
432.881; 1054.674; -601.248; -437.554
433.169; 6167.507; -343.255;  -61.540
433.458;12522.258;  445.765;  540.424
433.747; 5316.928; -397.261; -289.529
434.036;  904.025; -275.242; -280.564
434.324; 2104.886; -395.249; -379.551
434.613; 3646.293;   40.757;  159.437
434.902; 1232.864;  333.760;  439.433
435.190;  583.097;   75.761;  295.431
435.479;  324.550;  -52.245;   83.441
435.767;   98.608; -411.244; -427.561
436.056;  205.820; -340.242; -294.563
436.345;  380.866; -372.240; -223.568
436.633;  400.406;   60.750;  383.450
436.922;  276.293;  208.760;  414.432
437.210;  597.523; -194.236;    1.426
437.499; 1904.306; -583.235; -432.576
437.787; 2112.447; -339.236;  -10.574
438.075;  546.478;   56.761;  162.430
438.364;  703.906;  -44.238;  250.429
438.652;  444.486; -286.226; -138.592
438.941;  140.950;    3.770;  269.415
439.229;    1.333; -665.252; -466.545
439.517;   24.139; -160.234;  -85.577
439.806;   -1.649; -501.225; -290.595
440.094;  181.822;  377.766;  650.421
440.382;  170.076; -653.233; -302.580
440.670;  194.630; -361.235; -285.576
440.959;   33.319; -347.223; -170.599
441.247;   71.811; -151.229; -109.587
441.535;  103.437; -266.235;   31.423
441.823;   37.519; -497.234; -305.578
442.111;  192.890;  173.771;  327.412
442.400;  513.099; -628.245; -335.559
442.688; 1406.246; -111.234; -620.579
442.976; 1028.282; -786.213; -450.617
443.264;   89.408; -324.224; -364.597
443.552;  106.837; -258.226;   51.408
443.840;  186.836;  602.765;  876.423
444.128;  106.975;  265.767;  269.420
444.416;    3.943; -694.228; -312.588
444.704;   13.699; -465.219;  -92.605
444.992;   85.590;   -0.226;  240.407
445.280;   60.225; -517.230;  -94.585
445.568;   31.910; -694.212; -396.618
445.856;  347.733; -174.221;  357.398
446.143;  748.445;  -54.220;   -7.604
446.431;  634.272;  -25.228;  625.411
446.719;  258.693;  489.783;  675.391
447.007;  186.395;  481.769;  705.416
447.295;  190.766;  597.777;  871.402
447.583;   83.434; -464.229;  -34.587
447.870;  130.079; -434.221; -202.601
448.158;  437.524; -104.230;  129.415
448.446;  333.921; -800.219; -338.604
448.733;  186.235;   13.776;  269.403
449.021;  249.785;   60.788;  341.382
449.309;  179.250; -296.210;  208.379
449.596;  216.489;  128.783;   59.392
449.884;  149.423; -571.222; -325.600
450.172;  171.877; -756.227; -406.590
450.459;  436.365;  645.786;  780.387
450.747; 2355.938; -411.218; -147.608
451.034; 7566.173;  493.772;  889.411
451.322; 6303.293; -413.214; -170.614
451.609;  539.336;  292.777;  508.403
451.897;  590.538; -550.203; -183.634
452.184; 1782.341; -622.223; -400.598
452.472; 1707.621;   97.792;  269.375
452.759;  354.472;  512.781;  864.395
453.047;  100.033; -407.212; -125.617
453.334;   61.329; -732.219; -216.606
453.621;   79.295; -438.214; -161.615
453.909;  114.355;   13.796;  384.368
454.196;   89.576; -299.199; -123.641
454.483;  210.201;  317.798;  540.364
454.771;  118.199; -215.208;  196.374
455.058;   46.653; -316.207;  102.374
455.345;  110.331;   71.807;  344.347
455.632;   87.881; -128.207;  235.373
455.919;   50.148;  -82.196;  182.354
456.207;  -62.870; -774.198; -450.642
456.494;   -7.012; -475.200;  -66.639
456.781;    6.422; -399.202; -198.635
457.068;   54.988; -253.206;  -29.628
457.355;  -19.261; -698.206; -401.629
457.642;   -2.406; -552.205; -290.630
457.929;   10.397; -778.194; -417.651
458.216;   72.208; -575.212; -354.617
458.503;  229.327; -173.193;  -19.652
458.790;  211.947; -864.208; -630.625
459.077;  264.302;  -77.202;  110.364
459.364;  794.115; -350.195; -210.649
459.651; 1647.286;  -46.206;  220.372
459.938;  785.363; -864.209; -665.623
460.225;  148.980;  132.799;  276.363
460.512;  -45.880; -836.197; -688.645
460.799;  110.236;  -32.218;  320.392
461.086;   64.043; -370.200; -251.640
461.372;   24.405; -509.198; -279.642
461.659;  108.399; -165.196;  108.354
461.946;   51.475; -445.193;  -54.651
462.233;  242.465;  842.800;  888.361
462.519;  337.387; -814.201; -464.639
462.806; 1002.096; -768.197; -497.645
463.093;  887.546; -445.191;  -66.656
463.380;  -21.638; -920.186; -824.664
463.666;   54.723; -259.197;  -18.646
463.953;   86.360; -406.195; -243.648
464.239;  199.835; -173.195;  -77.648
464.526;  407.995;  413.806;  743.350
464.813;  341.708; -565.190; -304.658
465.099;  359.251;  606.807;  607.348
465.386;  322.705;  903.807;  921.348
465.672;   -0.054; -694.197; -522.645
465.959;   14.725; -598.188; -520.662
466.245;    8.705; -468.193; -359.652
466.532;  102.307; -109.195;   63.352
466.818;   75.037; -357.186; -216.664
467.104;    3.152; -488.182; -415.672
467.391;  -15.891; -628.189; -459.658
467.677;   28.166; -289.186;    9.335
467.964;   -1.259; -682.189; -471.660
468.250;   57.343; -331.186; -160.665
468.536;   75.136;   90.811;  180.341
468.822;  -37.095; -821.184; -574.668
469.109;  139.608;  351.827;  471.311
469.395;  189.965;  729.808;  787.346
469.681;  194.264;   46.811;  156.341
469.967; 1271.418; -699.188; -382.660
470.254; 2677.176; -494.188; -306.662
470.540; 1764.523; -601.196; -476.646
470.826;  257.888; -488.181; -397.675
471.112;  304.534;  288.816;  113.331
471.398;   92.213; -253.183;  -58.670
471.684;   33.042; -626.177; -447.680
471.970;  -10.958; -918.180; -981.675
472.256;   39.789; -521.192; -441.654
472.542;   21.119; -499.171; -434.691
472.828;   17.598; -743.182; -607.672
473.114;   22.713; -380.166; -283.700
473.400;    9.758; -504.175; -293.684
473.686;   24.369; -452.166; -400.701
473.972;   66.848; -230.174; -131.687
474.258;  -39.142; -925.173; -843.689
474.544;  191.883; -183.178;   -2.679
474.830;  298.885;  -65.175;   45.316
475.116;  477.009; -123.190; -196.658
475.401;  652.044; -558.180; -467.676
475.687;  185.218; -725.180; -718.676
475.973;   14.331; -673.181; -770.673
476.259;  246.112;  736.825;  764.315
476.544;  359.300; -539.176; -437.682
476.830;  815.515; -398.172; -322.690
477.116;  723.373; -430.177; -336.682
477.401;  150.744;  346.820;  358.324
477.687;  -21.992; -289.175; -405.684
477.973;   34.235;   21.819;   28.326
478.258;   -4.986; -448.163; -348.706
478.544;   50.474;   21.815;   61.334
478.829;  -60.650; -818.171; -738.692
479.115;  -45.885; -749.172; -651.690
479.401;   -9.107; -444.174; -449.686
479.686;   34.743; -253.180;  -74.676
479.972;  -37.161; -886.178; -776.680
480.257;   38.089; -258.166;  -65.700
480.542;   -4.847; -614.170; -469.693
480.828;  223.632; 1288.824; 1392.317
481.113;  -24.871; -464.176; -426.683
481.399;  -14.362; -236.161; -202.711
481.684;  -62.111; -620.166; -462.700
481.969;    9.727; -158.159;  -73.713
482.255;   -5.261; -439.169; -285.695
482.540;   -9.736; -569.178; -441.680
482.825;   16.232; -395.187; -404.663
483.110;  102.617;  -85.169; -105.696
483.396;  186.173; -840.157; -652.718
483.681;  495.648;  543.826;  730.313
483.966;  157.796; -696.160; -700.712
484.251;  -11.978; -404.174; -310.687
484.536;    6.849; -356.165; -378.703
484.822;   14.575; -205.173; -218.687
485.107;  -24.338; -599.152; -502.726
485.392;  126.080;  662.836;  541.296
485.677;   65.477;  354.832;  163.302
485.962;  110.196;  160.843;  270.283
486.247;   80.972;  -14.162;   -8.707
486.532;   31.915; -178.166; -325.701
486.817;  164.183;  381.839;  431.291
487.102;   99.670; -453.154; -514.722
487.387;  664.075; -637.156; -652.718
487.672; 1158.660; -154.164;  -38.705
487.957;  743.190; -394.160; -286.711
488.241;  207.028; -290.150; -314.729
488.526;  753.613; -280.152; -148.726
488.811; 1182.216; -881.177; -818.680
489.096;  893.672; -666.154; -702.723
489.381;  509.234;    3.847;  162.275
489.666;  381.588; -428.161; -510.710
489.950;  182.250;  558.846;  627.277
490.235;  -23.902; -480.151; -458.728
490.520;  -54.413; -756.161; -723.710
490.804;  -54.873; -827.156; -736.719
491.089;    4.694; -469.149; -299.732
491.374;   33.484; -132.164;  -75.704
491.658;    2.181; -817.147; -717.735
491.943;  170.392; -657.152; -609.727
492.227;  254.215; -178.155;  -38.721
492.512;   47.370; -294.157; -341.717
492.797;  -66.587; -713.149; -716.731
493.081;  -56.892; -588.147; -598.735
493.366;  -49.186; -751.161; -635.711
493.650;  210.661;  831.859;  917.254
493.935;   15.105; -648.147; -447.734
494.219;  -48.451; -778.142; -687.743
494.503;  -43.767; -585.150; -487.730
494.788;   43.087;   46.842;   74.285
495.072;  109.455;  184.850;  434.271
495.356;  169.197; -463.148; -343.733
495.641;  436.790; -812.146; -736.736
495.925;  441.932; -976.156; -903.719
496.209;   50.868; -599.149; -451.732
496.494;  -32.576; -763.142; -544.744
496.778;   11.445; -364.154; -360.722
497.062;  -59.793; -819.156; -627.719
497.346;  -38.733; -869.160; -640.711
497.631;  145.151;  580.852;  560.266
497.915;   64.600;  -64.145;  175.261
498.199;   38.973; -341.157; -277.718
498.483;   45.211; -562.152; -508.725
498.767;  189.981;  301.850;  300.271
499.051;  184.991; -126.149; -100.732
499.335;   20.039; -693.149; -739.731
499.619;  -40.612; -381.129; -423.767
499.903;   14.339; -272.155;  -65.721
500.187;   25.252; -588.153; -316.724
500.471;   20.616; -796.152; -595.727
500.755;   95.837;   62.839;  -96.710
501.039;   28.440; -270.155; -357.721
501.323;   79.288;  -21.141;  264.254
501.607;   42.190; -447.163; -503.706
501.891;   -7.875; -607.156; -512.718
502.174;  -32.363; -726.144; -585.741
502.458;   76.795;   89.849;  370.273
502.742;   28.062; -180.138; -191.751
503.026;  104.704; -412.147; -254.734
503.310;  170.476; -437.159; -375.713
503.593;  122.956; -464.147; -325.735
503.877;  122.502; -232.133; -156.760
504.161;  171.754;    2.847;  -50.724
504.444;  147.914; -841.158; -710.716
504.728;  454.658; -487.164; -522.704
505.012;  711.278; -257.150;  -76.729
505.295;  546.338; -417.161; -212.711
505.579;  528.657; -256.156; -496.719
505.862;  747.297; -555.145; -333.738
506.146;  750.678; -681.159; -758.714
506.429;  412.504;  568.841;  461.286
506.713;   60.825; -732.151; -667.728
506.996;  338.744;   90.846;  295.278
507.280;  337.778; -633.165; -474.703
507.563;  231.463; -469.155; -261.721
507.847;  101.803; -423.153; -112.724
508.130;   76.939; -665.161; -456.711
508.413;  110.435; -758.167; -577.700
508.697;  224.085; -151.167;   12.300
508.980;  142.304; -422.153; -312.724
509.263;   -0.716; -466.155; -450.720
509.547;   41.802; -124.150;   82.271
509.830;   39.816; -172.160;  140.289
510.113;   91.431;  128.844;  298.281
510.396;   39.685; -530.152; -300.725
510.680;  155.898; -818.145; -812.738
510.963;  650.824;  184.846;  180.277
511.246;  559.860; -493.150; -357.730
511.529;  270.228; -482.145;  -83.739
511.812;  367.974; -250.134;   10.241
512.095;  267.447; -740.151; -396.728
512.378;   78.310; -317.147; -245.736
512.661;   29.970; -703.137; -623.753
512.944;   12.651; -750.142; -637.744
513.227;   73.167; -170.137; -171.752
513.510;   35.287; -479.144; -671.741
513.793;   29.643; -485.140; -435.747
514.076;  135.809;  -43.127;  -39.771
514.359;  106.469; -294.149; -135.732
514.642;   87.704; -442.142; -567.744
514.925;  759.966;  581.860;  561.253
515.208;  982.095; -498.134; -443.758
515.491;  644.034; -276.133; -182.761
515.773;  367.740; -410.143; -337.742
516.056; 2067.676;  249.864;  409.246
516.339; 2799.280; -754.136; -652.755
516.622; 1920.883; -518.150; -488.730
516.904; 1258.572;  882.857;  975.257
517.187;  575.116; -730.138; -523.752
517.470;  413.021; -568.143; -510.743
517.752;  432.433; -624.136; -470.756
518.035;  330.478; -708.139; -725.749
518.318;  381.955; -799.136; -744.755
518.600; 2401.713; -300.132; -325.762
518.883; 3334.478;  310.858;   88.256
519.165; 1617.933; -585.138; -426.751
519.448;  401.362;  -61.132;  -19.762
519.730;  189.691; -573.126; -415.773
520.013;  330.955;  588.867;  664.240
520.295;  848.851;  -94.134;  -15.759
520.578; 1873.576; -335.131; -305.764
520.860; 2104.588; -254.132;   56.238
521.143; 1085.235; -763.135; -584.756
521.425;  483.129; -251.125; -279.775
521.707;  685.434; -622.127; -380.771
521.990; 1786.359; -199.127;  167.229
522.272; 2023.369; -116.140;   -4.748
522.554;  920.891; -237.143; -157.742
522.836;  372.724;  -24.134;   99.241
523.119;  215.278; -496.148; -189.734
523.401;  150.907; -448.130; -314.766
523.683;   75.545; -865.137; -693.753
523.965;  275.789;  408.862;  260.248
524.247;  277.575;   54.878;  170.220
524.529;  196.101; -451.134; -367.759
524.812;  368.484;   -3.130;  191.234
525.094;  857.813; -773.138; -631.751
525.376; 1353.188; -143.124;   78.223
525.658;  809.402; -441.136; -339.754
525.940;   18.447; -805.131; -671.764
526.222;   45.081; -188.136;  -88.755
526.504;  110.120; -190.131;   32.237
526.786;  181.303; -960.133; -647.760
527.068;  308.369; -124.123;  -67.778
527.349;  127.949; -865.137; -774.754
527.631;  131.462; -137.132;   22.238
527.913;  146.783; -664.127; -450.771
528.195;  169.872; -761.125; -639.774
528.477;  238.346;  -93.134;  -30.758
528.759;  132.834; -648.130; -522.766
529.040;   52.542; -569.123; -293.778
529.322;   56.700; -235.125;  -10.774
529.604;  142.011;  -47.130;   93.233
529.886;  124.566; -546.126; -302.773
530.167;  115.028;  232.870;  192.235
530.449;   56.385;    1.853;   63.265
530.731;   15.249; -572.122; -459.779
531.012;   61.645; -513.120; -216.784
531.294;   65.709; -118.116;  -43.792
531.575;  144.729;  290.875;  538.225
531.857;   58.840; -548.135; -266.757
532.138;   96.862; -113.141;   40.254
532.420;  173.212;  294.865;  403.244
532.701;  201.780; -722.133; -751.760
532.983;  342.159;  232.867;  182.239
533.264;  114.039; -243.126;  175.228
533.546;  -39.919; -491.136; -508.755
533.827;   45.902;  173.867;   -1.759
534.109;   32.065; -352.135;  -80.757
534.390;   98.641; -725.132; -582.762
534.671;  241.211; -270.135;  -82.756
534.953;  147.920; -751.123; -611.779
535.234;   17.869; -426.117; -255.789
535.515;  -82.796; -891.119; -735.785
535.796;  -17.896; -431.128; -193.770
536.078; -120.262;-1050.124; -904.777
536.359;    2.746;  -22.123;    3.221
536.640;  -12.851; -480.125; -197.774
536.921;  176.117;  225.871;  143.232
537.202;  366.735;  -87.138;  -16.751
537.483;  445.500;  251.869;  377.236
537.764;  183.678;   17.870;   98.235
538.045;  -45.405; -543.134; -371.758
538.326;  -28.182; -596.129; -447.768
538.607;   21.060; -686.127; -476.771
538.888;  171.786;   98.879;    5.218
