
Integration time [ms]: 100.000
Averaging Nr. [scans]: 40
Smoothing Nr. [pixels]: 0
Data measured with spectrometer [name]: 2101013U2
Wave   ;Sample   ;Dark     ;Reference
[nm]   ;[counts] ;[counts] ;[counts] 

394.013;   36.603; -450.257; -315.536
394.305;  154.776; -461.258; -419.536
394.596; 1100.798; -676.269; -527.514
394.887; 2782.115; -796.268; -654.518
395.178; 1090.220;  145.736;   11.476
395.470;   60.256; -210.263; -356.526
395.761;  164.830;  305.734;  394.479
396.052;  197.173; -545.284; -306.489
396.343;  200.168; -557.276; -454.503
396.634;   80.562; -200.279; -290.497
396.926;   76.212; -618.268; -565.517
397.217;   82.548;   11.725;  -17.504
397.508;   42.538; -366.273; -154.507
397.799;   32.062; -555.279; -571.497
398.090;  -22.219; -973.280; -902.495
398.381;  101.899;   11.708;  -11.473
398.672;  -23.525; -585.292; -742.473
398.963;   27.518; -348.279; -373.498
399.254;   95.159;   54.709; -209.475
399.545;  -39.774;-1017.266; -883.520
399.836;   40.407; -407.277; -343.501
400.127;   42.525; -205.295; -209.468
400.418;   37.183; -423.274; -392.506
400.709;   33.543; -359.281; -333.493
401.000;   27.638; -268.291; -309.476
401.290;   92.462;  225.698;  115.545
401.581;   76.931; -166.286; -228.485
401.872;    8.547; -542.298; -486.462
402.163;   48.643; -313.296; -252.467
402.454;   93.785; -123.291; -163.475
402.744;   57.359; -844.297; -813.465
403.035;  371.490; -226.293;  -86.471
403.326;  460.728; -366.292; -384.474
403.617;  347.967;  204.701;  165.539
403.907;  248.079; -593.283; -679.490
404.198; 2431.416; -545.307; -599.446
404.489; 6336.034; -618.283; -588.491
404.779; 2049.890; -618.302; -660.456
405.070;  229.194;  -67.304; -174.451
405.360;  336.467; -259.293; -238.472
405.651;  359.951;  125.699;   98.542
405.942;  165.926;  209.714;  127.516
406.232;  203.416; -432.285; -413.487
406.523;  403.385;  641.706;  758.530
406.813;   71.904; -579.286; -644.484
407.104;  275.173;  261.708;  144.527
407.394;  119.043; -604.299; -591.462
407.685;  139.840;  336.715;  222.513
407.975;   63.283; -400.283; -382.490
408.265;  107.949; -134.289; -190.478
408.556;   55.856; -472.291; -459.475
408.846;  169.536;  474.706;  429.530
409.137;   73.157;   -1.288; -216.480
409.427;   52.391; -193.285; -271.487
409.717;   37.891; -776.273; -692.508
410.007;  119.484;    4.715; -170.486
410.298;   91.453; -360.295; -342.469
410.588;   65.538; -495.285; -510.486
410.878;   24.893; -792.287; -873.482
411.168;  105.425; -481.298; -478.463
411.459;  121.552; -295.283; -242.489
411.749;   47.630; -609.292; -507.474
412.039;   50.156; -755.289; -386.480
412.329;  195.700;   40.722;  132.501
412.619;  197.104;  -62.286; -148.485
412.909;  352.152;  639.711;  594.521
413.199;  296.906; -130.280; -251.495
413.490;  359.942;  521.710;  352.523
413.780;  121.135;-1013.279; -913.496
414.070;  310.819;  -46.276;  235.497
414.360;  343.521; -729.278; -666.498
414.650;  383.564; -726.288; -688.482
414.940;  532.860; -538.280; -441.496
415.230;  924.936;   50.712;   74.519
415.520; 6167.472;  155.730;   66.486
415.809;24150.868; -305.281; -125.493
416.099;19017.934; -388.277; -229.501
416.389; 5370.356;  435.726;  236.494
416.679; 3171.835;   91.738;   85.473
416.969;  542.448; -527.287; -503.483
417.259;  579.712;  341.721;  171.503
417.549;  685.692;  522.718;  318.508
417.838; 1666.639; -205.268; -147.518
418.128; 5619.398;  650.710;  492.522
418.418; 4773.598; -491.272; -579.509
418.708; 3152.256;    9.726;  -48.506
418.997;11948.352; -474.275; -480.505
419.287;12552.963; -733.273; -790.507
419.577;11991.777; -160.283; -123.489
419.866;39313.207; -588.277; -498.501
420.156;39997.118; -242.270;  -55.513
420.446; 7189.377; -112.263;  -26.526
420.735;  784.537; -376.271; -446.512
421.025;  824.320; 1830.722;  315.502
421.314;  594.385; -203.271; -226.512
421.604; 1125.907;   89.732;  233.484
421.893;  658.557; -705.271; -602.511
422.183;  217.228; -487.263; -461.526
422.472;  341.858;  -36.271; -107.511
422.762;  391.507; -416.266; -379.521
423.051;  225.470; -916.276; -916.503
423.341;  288.864; -491.273; -439.507
423.630;  388.863; -121.265;   15.477
423.919;  362.076;   58.725;   49.495
424.209;  366.708;  -31.263;   56.473
424.498;  491.137;   68.732;  161.483
424.787; 1094.368; -535.267; -601.518
425.077; 3320.262;   34.735;   29.478
425.366; 4426.564; -734.262; -744.528
425.655;10058.340;  639.727;  259.493
425.945;22845.017; -313.247; -268.554
426.234;12805.561;  117.741;  300.467
426.523; 5096.441;  -86.259; -350.534
426.812; 7032.553;  107.734;  159.480
427.101;10469.703; -127.269; -323.515
427.390;13062.872;  -55.270;  -86.514
427.680; 2692.261; -624.257; -411.538
427.969;  457.072; -330.255; -301.540
428.258;  305.603; -385.257; -477.536
428.547;  486.402;  449.728;  397.490
428.836; 1044.538; -421.253; -398.543
429.125; 1498.393; -199.259;  -72.534
429.414;  731.236; -330.251; -294.548
429.703; 3164.586; -231.251; -213.548
429.992; 9503.039; -938.250; -828.549
430.281; 6330.496; -397.264; -331.524
430.570;  563.976;  -21.252;   32.454
430.859;  465.341;  279.741;  352.466
431.148;  417.438;  636.752;  631.446
431.437;  284.176;  391.748;  367.454
431.725;  156.204; -544.257; -481.536
432.014;  128.320; -845.253; -756.545
432.303;  360.038; -149.239; -105.569
432.592;  531.177; -460.263; -178.525
432.881; 1052.989; -601.248; -437.554
433.169; 6366.773; -343.255;  -61.540
433.458;13083.147;  445.765;  540.424
433.747; 5386.994; -397.261; -289.529
434.036;  815.539; -275.242; -280.564
434.324; 2077.526; -395.249; -379.551
434.613; 3731.233;   40.757;  159.437
434.902; 1215.679;  333.760;  439.433
435.190;  443.287;   75.761;  295.431
435.479;  232.115;  -52.245;   83.441
435.767;   89.198; -411.244; -427.561
436.056;  182.460; -340.242; -294.563
436.345;  365.256; -372.240; -223.568
436.633;  377.647;   60.750;  383.450
436.922;  227.583;  208.760;  414.432
437.210;  432.112; -194.236;    1.426
437.499; 1324.870; -583.235; -432.576
437.787; 1493.087; -339.236;  -10.574
438.075;  413.243;   56.761;  162.430
438.364;  548.145;  -44.238;  250.429
438.652;  312.350; -286.226; -138.592
438.941;  128.514;    3.770;  269.415
439.229;    6.148; -665.252; -466.545
439.517;   18.079; -160.234;  -85.577
439.806;  -14.710; -501.225; -290.595
440.094;  154.986;  377.766;  650.421
440.382;  128.540; -653.233; -302.580
440.670;  138.245; -361.235; -285.576
440.959;   20.158; -347.223; -170.599
441.247;   64.425; -151.229; -109.587
441.535;   73.652; -266.235;   31.423
441.823;   29.208; -497.234; -305.578
442.111;  174.179;  173.771;  327.412
442.400;  408.664; -628.245; -335.559
442.688; 1021.586; -111.234; -620.579
442.976;  698.545; -786.213; -450.617
443.264;   59.072; -324.224; -364.597
443.552;   81.251; -258.226;   51.408
443.840;  150.576;  602.765;  876.423
444.128;  112.239;  265.767;  269.420
444.416;   -1.718; -694.228; -312.588
444.704;   11.887; -465.219;  -92.605
444.992;   66.929;   -0.226;  240.407
445.280;   39.290; -517.230;  -94.585
445.568;   18.549; -694.212; -396.618
445.856;  270.221; -174.221;  357.398
446.143;  555.683;  -54.220;   -7.604
446.431;  489.186;  -25.228;  625.411
446.719;  215.431;  489.783;  675.391
447.007;  163.484;  481.769;  705.416
447.295;  177.005;  597.777;  871.402
447.583;   62.548; -464.229;  -34.587
447.870;  120.443; -434.221; -202.601
448.158;  339.738; -104.230;  129.415
448.446;  255.309; -800.219; -338.604
448.733;  139.998;   13.776;  269.403
449.021;  222.698;   60.788;  341.382
449.309;  165.638; -296.210;  208.379
449.596;  214.453;  128.783;   59.392
449.884;  132.012; -571.222; -325.600
450.172;  162.616; -756.227; -406.590
450.459;  456.378;  645.786;  780.387
450.747; 2508.276; -411.218; -147.608
451.034; 7913.187;  493.772;  889.411
451.322; 6693.581; -413.214; -170.614
451.609;  542.975;  292.777;  508.403
451.897;  593.751; -550.203; -183.634
452.184; 1869.155; -622.223; -400.598
452.472; 1743.059;   97.792;  269.375
452.759;  320.260;  512.781;  864.395
453.047;   89.996; -407.212; -125.617
453.334;   45.293; -732.219; -216.606
453.621;   57.484; -438.214; -161.615
453.909;  114.393;   13.796;  384.368
454.196;   96.063; -299.199; -123.641
454.483;  205.889;  317.798;  540.364
454.771;  122.587; -215.208;  196.374
455.058;   32.066; -316.207;  102.374
455.345;  119.793;   71.807;  344.347
455.632;   93.494; -128.207;  235.373
455.919;   63.410;  -82.196;  182.354
456.207;  -70.983; -774.198; -450.642
456.494;   -1.349; -475.200;  -66.639
456.781;    5.684; -399.202; -198.635
457.068;   66.350; -253.206;  -29.628
457.355;  -15.924; -698.206; -401.629
457.642;    0.782; -552.205; -290.630
457.929;   -3.991; -778.194; -417.651
458.216;   74.121; -575.212; -354.617
458.503;  251.914; -173.193;  -19.652
458.790;  259.960; -864.208; -630.625
459.077;  253.989;  -77.202;  110.364
459.364;  808.427; -350.195; -210.649
459.651; 1728.523;  -46.206;  220.372
459.938;  799.376; -864.209; -665.623
460.225;  127.217;  132.799;  276.363
460.512;  -56.743; -836.197; -688.645
460.799;   80.600;  -32.218;  320.392
461.086;   64.105; -370.200; -251.640
461.372;   21.393; -509.198; -279.642
461.659;   86.137; -165.196;  108.354
461.946;   34.062; -445.193;  -54.651
462.233;  224.678;  842.800;  888.361
462.519;  335.625; -814.201; -464.639
462.806; 1005.108; -768.197; -497.645
463.093;  895.108; -445.191;  -66.656
463.380;  -23.601; -920.186; -824.664
463.666;   49.110; -259.197;  -18.646
463.953;   83.447; -406.195; -243.648
464.239;  197.797; -173.195;  -77.648
464.526;  374.032;  413.806;  743.350
464.813;  292.819; -565.190; -304.658
465.099;  344.113;  606.807;  607.348
465.386;  302.742;  903.807;  921.348
465.672;    4.733; -694.197; -522.645
465.959;  -10.238; -598.188; -520.662
466.245;   16.992; -468.193; -359.652
466.532;   64.745; -109.195;   63.352
466.818;   53.148; -357.186; -216.664
467.104;  -12.387; -488.182; -415.672
467.391;  -25.054; -628.189; -459.658
467.677;   29.777; -289.186;    9.335
467.964;  -18.072; -682.189; -471.660
468.250;   36.180; -331.186; -160.665
468.536;   72.372;   90.811;  180.341
468.822;  -42.833; -821.184; -574.668
469.109;  135.144;  351.827;  471.311
469.395;  191.827;  729.808;  787.346
469.681;  197.875;   46.811;  156.341
469.967; 1250.255; -699.188; -382.660
470.254; 2778.313; -494.188; -306.662
470.540; 1814.210; -601.196; -476.646
470.826;  247.949; -488.181; -397.675
471.112;  324.970;  288.816;  113.331
471.398;   77.675; -253.183;  -58.670
471.684;   27.003; -626.177; -447.680
471.970;    1.078; -918.180; -981.675
472.256;   22.076; -521.192; -441.654
472.542;   22.430; -499.171; -434.691
472.828;    4.459; -743.182; -607.672
473.114;   26.648; -380.166; -283.700
473.400;    3.494; -504.175; -293.684
473.686;   27.179; -452.166; -400.701
473.972;   45.409; -230.174; -131.687
474.258;  -37.506; -925.173; -843.689
474.544;  220.444; -183.178;   -2.679
474.830;  341.671;  -65.175;   45.316
475.116;  532.996; -123.190; -196.658
475.401;  704.256; -558.180; -467.676
475.687;  204.005; -725.180; -718.676
475.973;   -9.658; -673.181; -770.673
476.259;  220.373;  736.825;  764.315
476.544;  364.136; -539.176; -437.682
476.830;  890.701; -398.172; -322.690
477.116;  798.059; -430.177; -336.682
477.401;  136.005;  346.820;  358.324
477.687;  -22.706; -289.175; -405.684
477.973;   39.146;   21.819;   28.326
478.258;   -3.375; -448.163; -348.706
478.544;   50.010;   21.815;   61.334
478.829;  -66.090; -818.171; -738.692
479.115;  -54.500; -749.172; -651.690
479.401;  -29.946; -444.174; -449.686
479.686;   25.379; -253.180;  -74.676
479.972;  -31.801; -886.178; -776.680
480.257;   38.774; -258.166;  -65.700
480.542;   -0.236; -614.170; -469.693
480.828;  242.192; 1288.824; 1392.317
481.113;  -41.335; -464.176; -426.683
481.399;  -12.302; -236.161; -202.711
481.684;  -42.401; -620.166; -462.700
481.969;   14.637; -158.159;  -73.713
482.255;  -18.075; -439.169; -285.695
482.540;    3.875; -569.178; -441.680
482.825;    3.844; -395.187; -404.663
483.110;   99.353;  -85.169; -105.696
483.396;  213.058; -840.157; -652.718
483.681;  511.334;  543.826;  730.313
483.966;  170.506; -696.160; -700.712
484.251;  -10.242; -404.174; -310.687
484.536;  -10.841; -356.165; -378.703
484.822;    5.386; -205.173; -218.687
485.107;  -27.479; -599.152; -502.726
485.392;  131.715;  662.836;  541.296
485.677;   65.513;  354.832;  163.302
485.962;   89.781;  160.843;  270.283
486.247;   74.607;  -14.162;   -8.707
486.532;   41.750; -178.166; -325.701
486.817;  160.868;  381.839;  431.291
487.102;  113.979; -453.154; -514.722
487.387;  714.985; -637.156; -652.718
487.672; 1268.020; -154.164;  -38.705
487.957;  806.250; -394.160; -286.711
488.241;  208.113; -290.150; -314.729
488.526;  775.147; -280.152; -148.726
488.811; 1263.427; -881.177; -818.680
489.096;  963.582; -666.154; -702.723
489.381;  529.944;    3.847;  162.275
489.666;  421.923; -428.161; -510.710
489.950;  190.135;  558.846;  627.277
490.235;  -21.817; -480.151; -458.728
490.520;  -56.303; -756.161; -723.710
490.804;  -44.038; -827.156; -736.719
491.089;   -7.797; -469.149; -299.732
491.374;   31.469; -132.164;  -75.704
491.658;  -19.235; -817.147; -717.735
491.943;  139.077; -657.152; -609.727
492.227;  218.050; -178.155;  -38.721
492.512;   54.780; -294.157; -341.717
492.797;  -64.778; -713.149; -716.731
493.081;  -54.783; -588.147; -598.735
493.366;  -55.952; -751.161; -635.711
493.650;  203.645;  831.859;  917.254
493.935;   36.089; -648.147; -447.734
494.219;  -41.393; -778.142; -687.743
494.503;  -38.583; -585.150; -487.730
494.788;   55.672;   46.842;   74.285
495.072;   97.064;  184.850;  434.271
495.356;  176.181; -463.148; -343.733
495.641;  425.074; -812.146; -736.736
495.925;  420.717; -976.156; -903.719
496.209;   11.053; -599.149; -451.732
496.494;  -53.592; -763.142; -544.744
496.778;    9.379; -364.154; -360.722
497.062;  -57.784; -819.156; -627.719
497.346;  -36.499; -869.160; -640.711
497.631;  144.085;  580.852;  560.266
497.915;   63.559;  -64.145;  175.261
498.199;   46.708; -341.157; -277.718
498.483;   17.071; -562.152; -508.725
498.767;  200.915;  301.850;  300.271
499.051;  169.725; -126.149; -100.732
499.335;   29.324; -693.149; -739.731
499.619;  -40.029; -381.129; -423.767
499.903;   27.174; -272.155;  -65.721
500.187;   29.436; -588.153; -316.724
500.471;   19.101; -796.152; -595.727
500.755;   86.997;   62.839;  -96.710
501.039;   31.999; -270.155; -357.721
501.323;   62.647;  -21.141;  264.254
501.607;   18.100; -447.163; -503.706
501.891;   -9.866; -607.156; -512.718
502.174;  -42.229; -726.144; -585.741
502.458;   73.105;   89.849;  370.273
502.742;   43.021; -180.138; -191.751
503.026;  129.814; -412.147; -254.734
503.310;  200.660; -437.159; -375.713
503.593;  119.415; -464.147; -325.735
503.877;  127.061; -232.133; -156.760
504.161;  148.714;    2.847;  -50.724
504.444;  140.874; -841.158; -710.716
504.728;  475.693; -487.164; -522.704
505.012;  754.062; -257.150;  -76.729
505.295;  558.048; -417.161; -212.711
505.579;  570.441; -256.156; -496.719
505.862;  794.856; -555.145; -333.738
506.146;  799.788; -681.159; -758.714
506.429;  453.813;  568.841;  461.286
506.713;   64.384; -732.151; -667.728
506.996;  321.329;   90.846;  295.278
507.280;  348.013; -633.165; -474.703
507.563;  267.647; -469.155; -261.721
507.847;   99.462; -423.153; -112.724
508.130;   93.349; -665.161; -456.711
508.413;  128.570; -758.167; -577.700
508.697;  276.045; -151.167;   12.300
508.980;  163.863; -422.153; -312.724
509.263;   -1.581; -466.155; -450.720
509.547;   41.837; -124.150;   82.271
509.830;   42.326; -172.160;  140.289
510.113;   90.141;  128.844;  298.281
510.396;   30.269; -530.152; -300.725
510.680;  108.807; -818.145; -812.738
510.963;  452.708;  184.846;  180.277
511.246;  377.544; -493.150; -357.730
511.529;  241.537; -482.145;  -83.739
511.812;  395.132; -250.134;   10.241
512.095;  292.431; -740.151; -396.728
512.378;   75.719; -317.147; -245.736
512.661;   34.453; -703.137; -623.753
512.944;   39.810; -750.142; -637.744
513.227;   74.351; -170.137; -171.752
513.510;   21.870; -479.144; -671.741
513.793;   30.726; -485.140; -435.747
514.076;  128.291;  -43.127;  -39.771
514.359;  112.704; -294.149; -135.732
514.642;   90.312; -442.142; -567.744
514.925;  798.825;  581.860;  561.253
515.208; 1093.204; -498.134; -443.758
515.491;  709.092; -276.133; -182.761
515.773;  404.524; -410.143; -337.742
516.056; 2244.435;  249.864;  409.246
516.339; 2964.614; -754.136; -652.755
516.622; 1834.542; -518.150; -488.730
516.904;  997.631;  882.857;  975.257
517.187;  440.699; -730.138; -523.752
517.470;  375.780; -568.143; -510.743
517.752;  452.841; -624.136; -470.756
518.035;  377.062; -708.139; -725.749
518.318;  419.914; -799.136; -744.755
518.600; 2621.071; -300.132; -325.762
518.883; 3616.812;  310.858;   88.256
519.165; 1727.817; -585.138; -426.751
519.448;  379.246;  -61.132;  -19.762
519.730;  178.949; -573.126; -415.773
520.013;  284.239;  588.867;  664.240
520.295;  657.259;  -94.134;  -15.759
520.578; 1407.584; -335.131; -305.764
520.860; 1631.521; -254.132;   56.238
521.143;  918.318; -763.135; -584.756
521.425;  474.912; -251.125; -279.775
521.707;  703.042; -622.127; -380.771
521.990; 1908.592; -199.127;  167.229
522.272; 2131.228; -116.140;   -4.748
522.554;  937.725; -237.143; -157.742
522.836;  301.407;  -24.134;   99.241
523.119;  188.687; -496.148; -189.734
523.401;  145.115; -448.130; -314.766
523.683;   91.154; -865.137; -693.753
523.965;  302.497;  408.862;  260.248
524.247;  299.783;   54.878;  170.220
524.529;  221.909; -451.134; -367.759
524.812;  361.742;   -3.130;  191.234
525.094;  891.971; -773.138; -631.751
525.376; 1443.371; -143.124;   78.223
525.658;  881.036; -441.136; -339.754
525.940;   29.280; -805.131; -671.764
526.222;   32.739; -188.136;  -88.755
526.504;  110.053; -190.131;   32.237
526.786;  119.761; -960.133; -647.760
527.068;  233.226; -124.123;  -67.778
527.349;   85.982; -865.137; -774.754
527.631;  127.845; -137.132;   22.238
527.913;  149.766; -664.127; -450.771
528.195;  179.380; -761.125; -639.774
528.477;  262.529;  -93.134;  -30.758
528.759;  161.167; -648.130; -522.766
529.040;   60.900; -569.123; -293.778
529.322;   55.107; -235.125;  -10.774
529.604;  128.044;  -47.130;   93.233
529.886;  105.049; -546.126; -302.773
530.167;  101.986;  232.870;  192.235
530.449;   49.194;    1.853;   63.265
530.731;   25.607; -572.122; -459.779
531.012;   81.603; -513.120; -216.784
531.294;   73.016; -118.116;  -43.792
531.575;  166.062;  290.875;  538.225
531.857;   53.174; -548.135; -266.757
532.138;   93.695; -113.141;   40.254
532.420;  151.045;  294.865;  403.244
532.701;  182.289; -722.133; -751.760
532.983;  303.942;  232.867;  182.239
533.264;  107.897; -243.126;  175.228
533.546;  -37.011; -491.136; -508.755
533.827;   35.635;  173.867;   -1.759
534.109;   26.549; -352.135;  -80.757
534.390;   76.825; -725.132; -582.762
534.671;  257.170; -270.135;  -82.756
534.953;  153.428; -751.123; -611.779
535.234;   23.877; -426.117; -255.789
535.515;  -69.664; -891.119; -735.785
535.796;   -7.688; -431.128; -193.770
536.078; -117.980;-1050.124; -904.777
536.359;    8.653;  -22.123;    3.221
536.640;  -33.119; -480.125; -197.774
536.921;  138.900;  225.871;  143.232
537.202;  379.743;  -87.138;  -16.751
537.483;  482.158;  251.869;  377.236
537.764;  188.311;   17.870;   98.235
538.045;  -45.472; -543.134; -371.758
538.326;  -32.949; -596.129; -447.768
538.607;    6.868; -686.127; -476.771
538.888;  195.319;   98.879;    5.218
