
Integration time [ms]: 100.000
Averaging Nr. [scans]: 40
Smoothing Nr. [pixels]: 0
Data measured with spectrometer [name]: 2101013U2
Wave   ;Sample   ;Dark     ;Reference
[nm]   ;[counts] ;[counts] ;[counts] 

394.013;   43.897; -450.257; -315.536
394.305;  166.520; -461.258; -419.536
394.596; 1109.867; -676.269; -527.514
394.887; 2765.558; -796.268; -654.518
395.178; 1056.914;  145.736;   11.476
395.470;   80.000; -210.263; -356.526
395.761;  174.473;  305.734;  394.479
396.052;  228.991; -545.284; -306.489
396.343;  238.011; -557.276; -454.503
396.634;   91.180; -200.279; -290.497
396.926;   92.406; -618.268; -565.517
397.217;   99.791;   11.725;  -17.504
397.508;   44.957; -366.273; -154.507
397.799;   31.680; -555.279; -571.497
398.090;   -4.751; -973.280; -902.495
398.381;  103.441;   11.708;  -11.473
398.672;  -16.132; -585.292; -742.473
398.963;   27.861; -348.279; -373.498
399.254;   94.677;   54.709; -209.475
399.545;  -40.405;-1017.266; -883.520
399.836;   50.275; -407.277; -343.501
400.127;   48.043; -205.295; -209.468
400.418;   48.426; -423.274; -392.506
400.709;   43.811; -359.281; -333.493
401.000;   49.506; -268.291; -309.476
401.290;  104.454;  225.698;  115.545
401.581;   62.499; -166.286; -228.485
401.872;    7.365; -542.298; -486.462
402.163;   50.860; -313.296; -252.467
402.454;   82.402; -123.291; -163.475
402.744;   68.227; -844.297; -813.465
403.035;  394.108; -226.293;  -86.471
403.326;  527.720; -366.292; -384.474
403.617;  345.559;  204.701;  165.539
403.907;  257.297; -593.283; -679.490
404.198; 2423.083; -545.307; -599.446
404.489; 6301.627; -618.283; -588.491
404.779; 2090.208; -618.302; -660.456
405.070;  234.486;  -67.304; -174.451
405.360;  325.185; -259.293; -238.472
405.651;  360.344;  125.699;   98.542
405.942;  186.444;  209.714;  127.516
406.232;  237.409; -432.285; -413.487
406.523;  430.178;  641.706;  758.530
406.813;   89.347; -579.286; -644.484
407.104;  313.065;  261.708;  144.527
407.394;  161.360; -604.299; -591.462
407.685;  145.583;  336.715;  222.513
407.975;   42.001; -400.283; -382.490
408.265;  111.942; -134.289; -190.478
408.556;   71.049; -472.291; -459.475
408.846;  162.028;  474.706;  429.530
409.137;   71.725;   -1.288; -216.480
409.427;   62.784; -193.285; -271.487
409.717;   27.685; -776.273; -692.508
410.007;  141.352;    4.715; -170.486
410.298;   85.220; -360.295; -342.469
410.588;   51.106; -495.285; -510.486
410.878;   35.561; -792.287; -873.482
411.168;  120.567; -481.298; -478.463
411.459;  117.395; -295.283; -242.489
411.749;   48.648; -609.292; -507.474
412.039;   58.098; -755.289; -386.480
412.329;  192.118;   40.722;  132.501
412.619;  199.847;  -62.286; -148.485
412.909;  368.595;  639.711;  594.521
413.199;  312.700; -130.280; -251.495
413.490;  375.835;  521.710;  352.523
413.780;  139.329;-1013.279; -913.496
414.070;  328.312;  -46.276;  235.497
414.360;  366.564; -729.278; -666.498
414.650;  409.032; -726.288; -688.482
414.940;  539.678; -538.280; -441.496
415.230;  917.554;   50.712;   74.519
415.520; 6158.116;  155.730;   66.486
415.809;24218.461; -305.281; -125.493
416.099;18972.303; -388.277; -229.501
416.389; 5281.399;  435.726;  236.494
416.679; 3134.429;   91.738;   85.473
416.969;  528.166; -527.287; -503.483
417.259;  583.730;  341.721;  171.503
417.549;  677.010;  522.718;  318.508
417.838; 1684.833; -205.268; -147.518
418.128; 5535.890;  650.710;  492.522
418.418; 4702.566; -491.272; -579.509
418.708; 3149.574;    9.726;  -48.506
418.997;11794.795; -474.275; -480.505
419.287;12464.056; -733.273; -790.507
419.577;11767.870; -160.283; -123.489
419.866;38913.250; -588.277; -498.501
420.156;39739.337; -242.270;  -55.513
420.446; 7167.171; -112.263;  -26.526
420.735;  836.256; -376.271; -446.512
421.025;  832.389; 1830.722;  315.502
421.314;  651.379; -203.271; -226.512
421.604; 1249.575;   89.732;  233.484
421.893;  743.450; -705.271; -602.511
422.183;  224.546; -487.263; -461.526
422.472;  362.727;  -36.271; -107.511
422.762;  421.201; -416.266; -379.521
423.051;  245.738; -916.276; -916.503
423.341;  295.308; -491.273; -439.507
423.630;  403.757; -121.265;   15.477
423.919;  381.594;   58.725;   49.495
424.209;  374.752;  -31.263;   56.473
424.498;  493.105;   68.732;  161.483
424.787; 1100.636; -535.267; -601.518
425.077; 3368.680;   34.735;   29.478
425.366; 4639.332; -734.262; -744.528
425.655;10084.058;  639.727;  259.493
425.945;22357.611; -313.247; -268.554
426.234;12451.855;  117.741;  300.467
426.523; 5144.635;  -86.259; -350.534
426.812; 7001.846;  107.734;  159.480
427.101;10396.647; -127.269; -323.515
427.390;13042.716;  -55.270;  -86.514
427.680; 2810.480; -624.257; -411.538
427.969;  454.866; -330.255; -301.540
428.258;  303.396; -385.257; -477.536
428.547;  505.520;  449.728;  397.490
428.836; 1138.957; -421.253; -398.543
429.125; 1636.337; -199.259;  -72.534
429.414;  791.654; -330.251; -294.548
429.703; 3175.704; -231.251; -213.548
429.992; 9528.958; -938.250; -828.549
430.281; 6245.889; -397.264; -331.524
430.570;  567.995;  -21.252;   32.454
430.859;  506.860;  279.741;  352.466
431.148;  427.007;  636.752;  631.446
431.437;  289.144;  391.748;  367.454
431.725;  155.673; -544.257; -481.536
432.014;  117.364; -845.253; -756.545
432.303;  364.633; -149.239; -105.569
432.592;  570.046; -460.263; -178.525
432.881; 1067.683; -601.248; -437.554
433.169; 6367.216; -343.255;  -61.540
433.458;12878.066;  445.765;  540.424
433.747; 5396.588; -397.261; -289.529
434.036;  859.433; -275.242; -280.564
434.324; 2094.570; -395.249; -379.551
434.613; 3709.402;   40.757;  159.437
434.902; 1202.423;  333.760;  439.433
435.190;  492.281;   75.761;  295.431
435.479;  281.109;  -52.245;   83.441
435.767;   86.117; -411.244; -427.561
436.056;  198.054; -340.242; -294.563
436.345;  369.950; -372.240; -223.568
436.633;  390.766;   60.750;  383.450
436.922;  242.952;  208.760;  414.432
437.210;  495.406; -194.236;    1.426
437.499; 1589.214; -583.235; -432.576
437.787; 1786.431; -339.236;  -10.574
438.075;  464.112;   56.761;  162.430
438.364;  606.314;  -44.238;  250.429
438.652;  389.194; -286.226; -138.592
438.941;  126.058;    3.770;  269.415
439.229;  -10.083; -665.252; -466.545
439.517;   31.773; -160.234;  -85.577
439.806;  -13.090; -501.225; -290.595
440.094;  167.380;  377.766;  650.421
440.382;  151.909; -653.233; -302.580
440.670;  181.764; -361.235; -285.576
440.959;   26.802; -347.223; -170.599
441.247;   61.520; -151.229; -109.587
441.535;   76.771; -266.235;   31.423
441.823;   21.778; -497.234; -305.578
442.111;  177.174;  173.771;  327.412
442.400;  466.508; -628.245; -335.559
442.688; 1211.255; -111.234; -620.579
442.976;  835.740; -786.213; -450.617
443.264;   80.916; -324.224; -364.597
443.552;   77.295; -258.226;   51.408
443.840;  160.520;  602.765;  876.423
444.128;   96.058;  265.767;  269.420
444.416;    3.426; -694.228; -312.588
444.704;   15.907; -465.219;  -92.605
444.992;   75.198;   -0.226;  240.407
445.280;   34.459; -517.230;  -94.585
445.568;   29.818; -694.212; -396.618
445.856;  289.516; -174.221;  357.398
446.143;  667.478;  -54.220;   -7.604
446.431;  568.855;  -25.228;  625.411
446.719;  232.376;  489.783;  675.391
447.007;  165.728;  481.769;  705.416
447.295;  182.274;  597.777;  871.402
447.583;   75.117; -464.229;  -34.587
447.870;  134.113; -434.221; -202.601
448.158;  377.258; -104.230;  129.415
448.446;  289.029; -800.219; -338.604
448.733;  142.618;   13.776;  269.403
449.021;  240.318;   60.788;  341.382
449.309;  167.883; -296.210;  208.379
449.596;  217.872;  128.783;   59.392
449.884;  146.231; -571.222; -325.600
450.172;  146.835; -756.227; -406.590
450.459;  455.748;  645.786;  780.387
450.747; 2479.246; -411.218; -147.608
451.034; 7815.406;  493.772;  889.411
451.322; 6524.351; -413.214; -170.614
451.609;  553.794;  292.777;  508.403
451.897;  607.571; -550.203; -183.634
452.184; 1846.424; -622.223; -400.598
452.472; 1748.554;   97.792;  269.375
452.759;  326.605;  512.781;  864.395
453.047;   93.065; -407.212; -125.617
453.334;   54.637; -732.219; -216.606
453.621;   60.353; -438.214; -161.615
453.909;  121.513;   13.796;  384.368
454.196;   91.608; -299.199; -123.641
454.483;  184.984;  317.798;  540.364
454.771;  114.857; -215.208;  196.374
455.058;   30.560; -316.207;  102.374
455.345;  129.013;   71.807;  344.347
455.632;   75.364; -128.207;  235.373
455.919;   52.080;  -82.196;  182.354
456.207;  -56.588; -774.198; -450.642
456.494;  -14.154; -475.200;  -66.639
456.781;   11.329; -399.202; -198.635
457.068;   49.720; -253.206;  -29.628
457.355;  -18.479; -698.206; -401.629
457.642;   -9.048; -552.205; -290.630
457.929;    3.404; -778.194; -417.651
458.216;   56.191; -575.212; -354.617
458.503;  230.809; -173.193;  -19.652
458.790;  251.255; -864.208; -630.625
459.077;  273.059;  -77.202;  110.364
459.364;  802.897; -350.195; -210.649
459.651; 1708.468;  -46.206;  220.372
459.938;  800.020; -864.209; -665.623
460.225;  113.462;  132.799;  276.363
460.512;  -57.422; -836.197; -688.645
460.799;   93.369;  -32.218;  320.392
461.086;   64.425; -370.200; -251.640
461.372;   22.238; -509.198; -279.642
461.659;   94.032; -165.196;  108.354
461.946;   47.707; -445.193;  -54.651
462.233;  225.573;  842.800;  888.361
462.519;  338.195; -814.201; -464.639
462.806; 1020.053; -768.197; -497.645
463.093;  882.028; -445.191;  -66.656
463.380;  -30.306; -920.186; -824.664
463.666;   28.105; -259.197;  -18.646
463.953;   96.742; -406.195; -243.648
464.239;  189.067; -173.195;  -77.648
464.526;  368.478;  413.806;  743.350
464.813;  313.990; -565.190; -304.658
465.099;  331.333;  606.807;  607.348
465.386;  306.237;  903.807;  921.348
465.672;   12.128; -694.197; -522.645
465.959;   22.157; -598.188; -520.662
466.245;    9.187; -468.193; -359.652
466.532;   76.715; -109.195;   63.352
466.818;   53.244; -357.186; -216.664
467.104;  -15.716; -488.182; -415.672
467.391;  -23.809; -628.189; -459.658
467.677;   22.897; -289.186;    9.335
467.964;   17.223; -682.189; -471.660
468.250;   53.200; -331.186; -160.665
468.536;   67.443;   90.811;  180.341
468.822;  -48.763; -821.184; -574.668
469.109;  141.514;  351.827;  471.311
469.395;  176.447;  729.808;  787.346
469.681;  183.871;   46.811;  156.341
469.967; 1270.550; -699.188; -382.660
470.254; 2746.358; -494.188; -306.662
470.540; 1798.730; -601.196; -476.646
470.826;  256.870; -488.181; -397.675
471.112;  314.041;  288.816;  113.331
471.398;   80.545; -253.183;  -58.670
471.684;   26.948; -626.177; -447.680
471.970;  -14.426; -918.180; -981.675
472.256;   19.396; -521.192; -441.654
472.542;    4.650; -499.171; -434.691
472.828;   -8.420; -743.182; -607.672
473.114;   20.319; -380.166; -283.700
473.400;   -2.385; -504.175; -293.684
473.686;   22.175; -452.166; -400.701
473.972;   41.779; -230.174; -131.687
474.258;  -49.110; -925.173; -843.689
474.544;  196.915; -183.178;   -2.679
474.830;  327.141;  -65.175;   45.316
475.116;  505.816; -123.190; -196.658
475.401;  681.126; -558.180; -467.676
475.687;  201.350; -725.180; -718.676
475.973;   -2.062; -673.181; -770.673
476.259;  222.894;  736.825;  764.315
476.544;  369.381; -539.176; -437.682
476.830;  847.571; -398.172; -322.690
477.116;  763.805; -430.177; -336.682
477.401;  137.176;  346.820;  358.324
477.687;  -18.035; -289.175; -405.684
477.973;   34.016;   21.819;   28.326
478.258;    1.170; -448.163; -348.706
478.544;   49.755;   21.815;   61.334
478.829;  -70.044; -818.171; -738.692
479.115;  -50.879; -749.172; -651.690
479.401;   -4.725; -444.174; -449.686
479.686;   36.274; -253.180;  -74.676
479.972;  -18.555; -886.178; -776.680
480.257;   30.320; -258.166;  -65.700
480.542;   -8.590; -614.170; -469.693
480.828;  226.413; 1288.824; 1392.317
481.113;  -30.814; -464.176; -426.683
481.399;  -17.481; -236.161; -202.711
481.684;  -61.780; -620.166; -462.700
481.969;    5.758; -158.159;  -73.713
482.255;   -3.280; -439.169; -285.695
482.540;   -4.180; -569.178; -441.680
482.825;   15.964; -395.187; -404.663
483.110;   93.424;  -85.169; -105.696
483.396;  200.604; -840.157; -652.718
483.681;  526.454;  543.826;  730.313
483.966;  155.327; -696.160; -700.712
484.251;    6.028; -404.174; -310.687
484.536;  -13.045; -356.165; -378.703
484.822;    8.106; -205.173; -218.687
485.107;  -41.133; -599.152; -502.726
485.392;  119.986;  662.836;  541.296
485.677;   72.658;  354.832;  163.302
485.962;   88.877;  160.843;  270.283
486.247;   82.253;  -14.162;   -8.707
486.532;   38.521; -178.166; -325.701
486.817;  159.189;  381.839;  431.291
487.102;   94.450; -453.154; -514.722
487.387;  691.081; -637.156; -652.718
487.672; 1223.191; -154.164;  -38.705
487.957;  781.621; -394.160; -286.711
488.241;  196.659; -290.150; -314.729
488.526;  782.244; -280.152; -148.726
488.811; 1227.447; -881.177; -818.680
489.096;  899.553; -666.154; -702.723
489.381;  498.815;    3.847;  162.275
489.666;  406.694; -428.161; -510.710
489.950;  175.631;  558.846;  627.277
490.235;  -21.296; -480.151; -458.728
490.520;  -51.482; -756.161; -723.710
490.804;  -61.642; -827.156; -736.719
491.089;  -28.800; -469.149; -299.732
491.374;   33.315; -132.164;  -75.704
491.658;  -12.064; -817.147; -717.735
491.943;  151.373; -657.152; -609.727
492.227;  225.796; -178.155;  -38.721
492.512;   53.276; -294.157; -341.717
492.797;  -78.657; -713.149; -716.731
493.081;  -55.236; -588.147; -598.735
493.366;  -44.480; -751.161; -635.711
493.650;  208.642;  831.859;  917.254
493.935;   21.535; -648.147; -447.734
494.219;  -50.421; -778.142; -687.743
494.503;  -56.387; -585.150; -487.730
494.788;   34.518;   46.842;   74.285
495.072;  106.760;  184.850;  434.271
495.356;  163.078; -463.148; -343.733
495.641;  465.045; -812.146; -736.736
495.925;  429.488; -976.156; -903.719
496.209;   27.724; -599.149; -451.732
496.494;  -58.870; -763.142; -544.744
496.778;    2.225; -364.154; -360.722
497.062;  -54.463; -819.156; -627.719
497.346;  -34.077; -869.160; -640.711
497.631;  139.231;  580.852;  560.266
497.915;   68.981;  -64.145;  175.261
498.199;   42.329; -341.157; -277.718
498.483;   26.667; -562.152; -508.725
498.767;  195.761;  301.850;  300.271
499.051;  192.647; -126.149; -100.732
499.335;   33.845; -693.149; -739.731
499.619;  -63.557; -381.129; -423.767
499.903;   18.620; -272.155;  -65.721
500.187;   13.882; -588.153; -316.724
500.471;   27.172; -796.152; -595.727
500.755;   87.993;   62.839;  -96.710
501.039;    8.220; -270.155; -357.721
501.323;   82.118;  -21.141;  264.254
501.607;   25.671; -447.163; -503.706
501.891;   -8.794; -607.156; -512.718
502.174;  -38.233; -726.144; -585.741
502.458;   71.376;   89.849;  370.273
502.742;   32.642; -180.138; -191.751
503.026;  102.685; -412.147; -254.734
503.310;  185.932; -437.159; -375.713
503.593;  123.462; -464.147; -325.735
503.877;  111.732; -232.133; -156.760
504.161;  165.460;    2.847;  -50.724
504.444;  120.895; -841.158; -710.716
504.728;  465.039; -487.164; -522.704
505.012;  742.108; -257.150;  -76.729
505.295;  545.994; -417.161; -212.711
505.579;  539.987; -256.156; -496.719
505.862;  780.877; -555.145; -333.738
506.146;  754.934; -681.159; -758.714
506.429;  414.234;  568.841;  461.286
506.713;   48.605; -732.151; -667.728
506.996;  314.675;   90.846;  295.278
507.280;  348.909; -633.165; -474.703
507.563;  234.543; -469.155; -261.721
507.847;   90.808; -423.153; -112.724
508.130;   89.745; -665.161; -456.711
508.413;  120.766; -758.167; -577.700
508.697;  249.891; -151.167;   12.300
508.980;  162.835; -422.153; -312.724
509.263;  -10.110; -466.155; -450.720
509.547;   36.158; -124.150;   82.271
509.830;   38.247; -172.160;  140.289
510.113;   89.662;  128.844;  298.281
510.396;   23.190; -530.152; -300.725
510.680;  117.703; -818.145; -812.738
510.963;  528.929;  184.846;  180.277
511.246;  443.916; -493.150; -357.730
511.529;  263.808; -482.145;  -83.739
511.812;  391.954; -250.134;   10.241
512.095;  281.952; -740.151; -396.728
512.378;   73.691; -317.147; -245.736
512.661;   12.275; -703.137; -623.753
512.944;   41.481; -750.142; -637.744
513.227;   52.097; -170.137; -171.752
513.510;   22.117; -479.144; -671.741
513.793;   20.898; -485.140; -435.747
514.076;  134.863;  -43.127;  -39.771
514.359;  108.050; -294.149; -135.732
514.642;   85.684; -442.142; -567.744
514.925;  791.721;  581.860;  561.253
515.208; 1045.550; -498.134; -443.758
515.491;  681.264; -276.133; -182.761
515.773;  402.771; -410.143; -337.742
516.056; 2144.631;  249.864;  409.246
516.339; 2940.885; -754.136; -652.755
516.622; 1880.988; -518.150; -488.730
516.904; 1133.928;  882.857;  975.257
517.187;  508.496; -730.138; -523.752
517.470;  378.401; -568.143; -510.743
517.752;  416.663; -624.136; -470.756
518.035;  376.383; -708.139; -725.749
518.318;  410.360; -799.136; -744.755
518.600; 2540.243; -300.132; -325.762
518.883; 3451.308;  310.858;   88.256
519.165; 1698.639; -585.138; -426.751
519.448;  388.817;  -61.132;  -19.762
519.730;  183.646; -573.126; -415.773
520.013;  288.335;  588.867;  664.240
520.295;  730.506;  -94.134;  -15.759
520.578; 1624.480; -335.131; -305.764
520.860; 1856.593; -254.132;   56.238
521.143; 1013.490; -763.135; -584.756
521.425;  470.384; -251.125; -279.775
521.707;  722.089; -622.127; -380.771
521.990; 1852.964; -199.127;  167.229
522.272; 2109.074; -116.140;   -4.748
522.554;  939.596; -237.143; -157.742
522.836;  350.204;  -24.134;   99.241
523.119;  218.109; -496.148; -189.734
523.401;  141.187; -448.130; -314.766
523.683;   92.700; -865.137; -693.753
523.965;  281.519;  408.862;  260.248
524.247;  286.630;   54.878;  170.220
524.529;  192.181; -451.134; -367.759
524.812;  354.214;   -3.130;  191.234
525.094;  881.993; -773.138; -631.751
525.376; 1420.118; -143.124;   78.223
525.658;  878.682; -441.136; -339.754
525.940;   35.602; -805.131; -671.764
526.222;   22.311; -188.136;  -88.755
526.504;   98.450; -190.131;   32.237
526.786;  155.258; -960.133; -647.760
527.068;  255.573; -124.123;  -67.778
527.349;   96.954; -865.137; -774.754
527.631;  121.542; -137.132;   22.238
527.913;  126.238; -664.127; -450.771
528.195;  172.852; -761.125; -639.774
528.477;  256.351;  -93.134;  -30.758
528.759;  147.914; -648.130; -522.766
529.040;   48.122; -569.123; -293.778
529.322;   53.154; -235.125;  -10.774
529.604;  126.041;  -47.130;   93.233
529.886;  110.870; -546.126; -302.773
530.167;  120.533;  232.870;  192.235
530.449;   39.140;    1.853;   63.265
530.731;   30.729; -572.122; -459.779
531.012;   77.225; -513.120; -216.784
531.294;   70.239; -118.116;  -43.792
531.575;  146.909;  290.875;  538.225
531.857;   51.245; -548.135; -266.757
532.138;   94.917; -113.141;   40.254
532.420;  163.617;  294.865;  403.244
532.701;  194.510; -722.133; -751.760
532.983;  314.213;  232.867;  182.239
533.264;  130.844; -243.126;  175.228
533.546;  -32.839; -491.136; -508.755
533.827;   45.907;  173.867;   -1.759
534.109;   29.620; -352.135;  -80.757
534.390;   95.596; -725.132; -582.762
534.671;  230.291; -270.135;  -82.756
534.953;  142.025; -751.123; -611.779
535.234;   25.624; -426.117; -255.789
535.515;  -83.267; -891.119; -735.785
535.796;  -22.941; -431.128; -193.770
536.078; -121.908;-1050.124; -904.777
536.359;   -2.500;  -22.123;    3.221
536.640;  -23.147; -480.125; -197.774
536.921;  166.796;  225.871;  143.232
537.202;  380.590;  -87.138;  -16.751
537.483;  491.330;  251.869;  377.236
537.764;  183.408;   17.870;   98.235
538.045;  -44.925; -543.134; -371.758
538.326;  -26.327; -596.129; -447.768
538.607;    7.890; -686.127; -476.771
538.888;  163.841;   98.879;    5.218
