
Integration time [ms]: 100.000
Averaging Nr. [scans]: 40
Smoothing Nr. [pixels]: 0
Data measured with spectrometer [name]: 2101013U2
Wave   ;Sample   ;Dark     ;Reference
[nm]   ;[counts] ;[counts] ;[counts] 

394.013;   67.684; -450.257; -315.536
394.305;  248.632; -461.258; -419.536
394.596; 1078.130; -676.269; -527.514
394.887; 2621.596; -796.268; -654.518
395.178;  997.727;  145.736;   11.476
395.470;  111.513; -210.263; -356.526
395.761;  209.761;  305.734;  394.479
396.052;  366.630; -545.284; -306.489
396.343;  374.850; -557.276; -454.503
396.634;  127.744; -200.279; -290.497
396.926;  151.119; -618.268; -565.517
397.217;  137.604;   11.725;  -17.504
397.508;   52.745; -366.273; -154.507
397.799;   59.369; -555.279; -571.497
398.090;    9.363; -973.280; -902.495
398.381;  136.231;   11.708;  -11.473
398.672;    1.232; -585.292; -742.473
398.963;   62.925; -348.279; -373.498
399.254;  117.341;   54.709; -209.475
399.545;   -2.817;-1017.266; -883.520
399.836;   88.714; -407.277; -343.501
400.127;   70.982; -205.295; -209.468
400.418;   73.540; -423.274; -392.506
400.709;   74.175; -359.281; -333.493
401.000;   51.920; -268.291; -309.476
401.290;  116.544;  225.698;  115.545
401.581;   79.513; -166.286; -228.485
401.872;   35.255; -542.298; -486.462
402.163;   58.825; -313.296; -252.467
402.454;  103.517; -123.291; -163.475
402.744;   87.116; -844.297; -813.465
403.035;  517.022; -226.293;  -86.471
403.326;  659.160; -366.292; -384.474
403.617;  420.274;  204.701;  165.539
403.907;  256.436; -593.283; -679.490
404.198; 2336.949; -545.307; -599.446
404.489; 6116.741; -618.283; -588.491
404.779; 2113.348; -618.302; -660.456
405.070;  253.476;  -67.304; -174.451
405.360;  334.624; -259.293; -238.472
405.651;  365.884;  125.699;   98.542
405.942;  210.109;  209.714;  127.516
406.232;  328.798; -432.285; -413.487
406.523;  551.192;  641.706;  758.530
406.813;  118.986; -579.286; -644.484
407.104;  399.730;  261.708;  144.527
407.394;  227.850; -604.299; -591.462
407.685;  170.047;  336.715;  222.513
407.975;   78.515; -400.283; -382.490
408.265;  129.406; -134.289; -190.478
408.556;   80.439; -472.291; -459.475
408.846;  183.968;  474.706;  429.530
409.137;   87.489;   -1.288; -216.480
409.427;   54.373; -193.285; -271.487
409.717;   42.823; -776.273; -692.508
410.007;  155.666;    4.715; -170.486
410.298;   99.010; -360.295; -342.469
410.588;   73.620; -495.285; -510.486
410.878;   44.825; -792.287; -873.482
411.168;  124.407; -481.298; -478.463
411.459;  119.484; -295.283; -242.489
411.749;   63.212; -609.292; -507.474
412.039;   62.463; -755.289; -386.480
412.329;  207.882;   40.722;  132.501
412.619;  213.961;  -62.286; -148.485
412.909;  383.259;  639.711;  594.521
413.199;  355.688; -130.280; -251.495
413.490;  429.249;  521.710;  352.523
413.780;  149.367;-1013.279; -913.496
414.070;  336.226;  -46.276;  235.497
414.360;  392.828; -729.278; -666.498
414.650;  427.346; -726.288; -688.482
414.940;  520.117; -538.280; -441.496
415.230;  913.368;   50.712;   74.519
415.520; 5949.779;  155.730;   66.486
415.809;23378.850; -305.281; -125.493
416.099;18011.866; -388.277; -229.501
416.389; 4979.587;  435.726;  236.494
416.679; 2923.341;   91.738;   85.473
416.969;  523.330; -527.287; -503.483
417.259;  479.394;  341.721;  171.503
417.549;  680.449;  522.718;  318.508
417.838; 1619.371; -205.268; -147.518
418.128; 5285.080;  650.710;  492.522
418.418; 4395.455; -491.272; -579.509
418.708; 2997.338;    9.726;  -48.506
418.997;11092.408; -474.275; -480.505
419.287;11590.094; -733.273; -790.507
419.577;10870.309; -160.283; -123.489
419.866;36176.839; -588.277; -498.501
420.156;37335.275; -242.270;  -55.513
420.446; 6750.834; -112.263;  -26.526
420.735;  925.519; -376.271; -446.512
421.025;  850.452; 1830.722;  315.502
421.314;  775.117; -203.271; -226.512
421.604; 1710.964;   89.732;  233.484
421.893;  983.164; -705.271; -602.511
422.183;  240.384; -487.263; -461.526
422.472;  401.940;  -36.271; -107.511
422.762;  480.764; -416.266; -379.521
423.051;  283.426; -916.276; -916.503
423.341;  340.546; -491.273; -439.507
423.630;  438.795; -121.265;   15.477
423.919;  395.658;   58.725;   49.495
424.209;  378.090;  -31.263;   56.473
424.498;  488.768;   68.732;  161.483
424.787; 1068.500; -535.267; -601.518
425.077; 3388.243;   34.735;   29.478
425.366; 4967.770; -734.262; -744.528
425.655; 9678.647;  639.727;  259.493
425.945;20275.348; -313.247; -268.554
426.234;11210.868;  117.741;  300.467
426.523; 4884.148;  -86.259; -350.534
426.812; 6798.860;  107.734;  159.480
427.101; 9952.435; -127.269; -323.515
427.390;12735.279;  -55.270;  -86.514
427.680; 3127.167; -624.257; -411.538
427.969;  534.028; -330.255; -301.540
428.258;  339.809; -385.257; -477.536
428.547;  568.159;  449.728;  397.490
428.836; 1432.794; -421.253; -398.543
429.125; 2093.375; -199.259;  -72.534
429.414;  860.317; -330.251; -294.548
429.703; 3046.717; -231.251; -213.548
429.992; 9024.895; -938.250; -828.549
430.281; 5930.302; -397.264; -331.524
430.570;  593.857;  -21.252;   32.454
430.859;  621.672;  279.741;  352.466
431.148;  456.769;  636.752;  631.446
431.437;  300.257;  391.748;  367.454
431.725;  170.061; -544.257; -481.536
432.014;  135.176; -845.253; -756.545
432.303;  412.469; -149.239; -105.569
432.592;  689.809; -460.263; -178.525
432.881; 1034.370; -601.248; -437.554
433.169; 5905.829; -343.255;  -61.540
433.458;12040.803;  445.765;  540.424
433.747; 5119.376; -397.261; -289.529
434.036;  957.470; -275.242; -280.564
434.324; 2066.483; -395.249; -379.551
434.613; 3542.714;   40.757;  159.437
434.902; 1219.660;  333.760;  439.433
435.190;  691.968;   75.761;  295.431
435.479;  377.671;  -52.245;   83.441
435.767;  128.504; -411.244; -427.561
436.056;  241.416; -340.242; -294.563
436.345;  363.112; -372.240; -223.568
436.633;  392.053;   60.750;  383.450
436.922;  285.964;  208.760;  414.432
437.210;  745.718; -194.236;    1.426
437.499; 2401.426; -583.235; -432.576
437.787; 2667.068; -339.236;  -10.574
438.075;  646.099;   56.761;  162.430
438.364;  890.551;  -44.238;  250.429
438.652;  534.580; -286.226; -138.592
438.941;  156.020;    3.770;  269.415
439.229;   18.254; -665.252; -466.545
439.517;   54.584; -160.234;  -85.577
439.806;   -6.654; -501.225; -290.595
440.094;  194.717;  377.766;  650.421
440.382;  237.946; -653.233; -302.580
440.670;  248.276; -361.235; -285.576
440.959;   38.288; -347.223; -170.599
441.247;   90.006; -151.229; -109.587
441.535;  117.208; -266.235;   31.423
441.823;   69.914; -497.234; -305.578
442.111;  207.535;  173.771;  327.412
442.400;  625.320; -628.245; -335.559
442.688; 1701.367; -111.234; -620.579
442.976; 1272.825; -786.213; -450.617
443.264;  126.377; -324.224; -364.597
443.552;  121.031; -258.226;   51.408
443.840;  182.506;  602.765;  876.423
444.128;  118.470;  265.767;  269.420
444.416;    2.163; -694.228; -312.588
444.704;   40.368; -465.219;  -92.605
444.992;   78.259;   -0.226;  240.407
445.280;   56.620; -517.230;  -94.585
445.568;   61.129; -694.212; -396.618
445.856;  406.677; -174.221;  357.398
446.143;  953.164;  -54.220;   -7.604
446.431;  754.491;  -25.228;  625.411
446.719;  274.962;  489.783;  675.391
447.007;  208.140;  481.769;  705.416
447.295;  185.235;  597.777;  871.402
447.583;  111.804; -464.229;  -34.587
447.870;  180.649; -434.221; -202.601
448.158;  470.994; -104.230;  129.415
448.446;  371.865; -800.219; -338.604
448.733;  203.229;   13.776;  269.403
449.021;  288.103;   60.788;  341.382
449.309;  189.793; -296.210;  208.379
449.596;  213.383;  128.783;   59.392
449.884;  163.892; -571.222; -325.600
450.172;  150.297; -756.227; -406.590
450.459;  430.134;  645.786;  780.387
450.747; 2258.406; -411.218; -147.608
451.034; 7181.217;  493.772;  889.411
451.322; 5894.912; -413.214; -170.614
451.609;  510.155;  292.777;  508.403
451.897;  578.881; -550.203; -183.634
452.184; 1724.110; -622.223; -400.598
452.472; 1620.639;   97.792;  269.375
452.759;  370.465;  512.781;  864.395
453.047;  116.351; -407.212; -125.617
453.334;   99.448; -732.219; -216.606
453.621;   99.989; -438.214; -161.615
453.909;  131.648;   13.796;  384.368
454.196;  101.693; -299.199; -123.641
454.483;  238.694;  317.798;  540.364
454.771;  136.367; -215.208;  196.374
455.058;   52.021; -316.207;  102.374
455.345;  111.323;   71.807;  344.347
455.632;   97.174; -128.207;  235.373
455.919;   60.940;  -82.196;  182.354
456.207;  -47.228; -774.198; -450.642
456.494;  -15.344; -475.200;  -66.639
456.781;   16.339; -399.202; -198.635
457.068;   60.480; -253.206;  -29.628
457.355;   -7.393; -698.206; -401.629
457.642;   15.487; -552.205; -290.630
457.929;   14.289; -778.194; -417.651
458.216;   58.951; -575.212; -354.617
458.503;  222.518; -173.193;  -19.652
458.790;  226.240; -864.208; -630.625
459.077;  272.044;  -77.202;  110.364
459.364;  760.757; -350.195; -210.649
459.651; 1615.678;  -46.206;  220.372
459.938;  760.856; -864.209; -665.623
460.225;  177.897;  132.799;  276.363
460.512;  -38.288; -836.197; -688.645
460.799;  112.730;  -32.218;  320.392
461.086;   89.510; -370.200; -251.640
461.372;   60.398; -509.198; -279.642
461.659;  124.991; -165.196;  108.354
461.946;   75.892; -445.193;  -54.651
462.233;  244.733;  842.800;  888.361
462.519;  340.980; -814.201; -464.639
462.806;  986.213; -768.197; -497.645
463.093;  842.112; -445.191;  -66.656
463.380;  -25.297; -920.186; -824.664
463.666;   52.065; -259.197;  -18.646
463.953;  114.177; -406.195; -243.648
464.239;  195.476; -173.195;  -77.648
464.526;  402.312;  413.806;  743.350
464.813;  367.799; -565.190; -304.658
465.099;  367.893;  606.807;  607.348
465.386;  359.947;  903.807;  921.348
465.672;   37.888; -694.197; -522.645
465.959;   36.917; -598.188; -520.662
466.245;   16.847; -468.193; -359.652
466.532;  115.724; -109.195;   63.352
466.818;  101.428; -357.186; -216.664
467.104;   20.793; -488.182; -415.672
467.391;  -11.799; -628.189; -459.658
467.677;   30.507; -289.186;    9.335
467.964;    1.082; -682.189; -471.660
468.250;   69.784; -331.186; -160.665
468.536;   87.902;   90.811;  180.341
468.822;  -26.654; -821.184; -574.668
469.109;  137.248;  351.827;  471.311
469.395;  190.906;  729.808;  787.346
469.681;  182.605;   46.811;  156.341
469.967; 1184.135; -699.188; -382.660
470.254; 2576.467; -494.188; -306.662
470.540; 1643.715; -601.196; -476.646
470.826;  231.104; -488.181; -397.675
471.112;  300.350;  288.816;  113.331
471.398;  103.654; -253.183;  -58.670
471.684;   52.007; -626.177; -447.680
471.970;   -1.217; -918.180; -981.675
472.256;   27.780; -521.192; -441.654
472.542;   21.409; -499.171; -434.691
472.828;   32.814; -743.182; -607.672
473.114;   27.002; -380.166; -283.700
473.400;   17.848; -504.175; -293.684
473.686;   30.483; -452.166; -400.701
473.972;   68.838; -230.174; -131.687
474.258;  -68.302; -925.173; -843.689
474.544;  175.174; -183.178;   -2.679
474.830;  283.450;  -65.175;   45.316
475.116;  453.250; -123.190; -196.658
475.401;  598.235; -558.180; -467.676
475.687;  200.584; -725.180; -718.676
475.973;   10.522; -673.181; -770.673
476.259;  262.027;  736.825;  764.315
476.544;  359.840; -539.176; -437.682
476.830;  744.155; -398.172; -322.690
477.116;  659.814; -430.177; -336.682
477.401;  136.859;  346.820;  358.324
477.687;  -31.151; -289.175; -405.684
477.973;   37.375;   21.819;   28.326
478.258;  -13.921; -448.163; -348.706
478.544;   59.715;   21.815;   61.334
478.829;  -58.536; -818.171; -738.692
479.115;  -30.320; -749.172; -651.690
479.401;   -1.867; -444.174; -449.686
479.686;   27.983; -253.180;  -74.676
479.972;  -23.471; -886.178; -776.680
480.257;   35.328; -258.166;  -65.700
480.542;    4.793; -614.170; -469.693
480.828;  227.947; 1288.824; 1392.317
481.113;  -12.655; -464.176; -426.683
481.399;   -4.073; -236.161; -202.711
481.684;  -44.172; -620.166; -462.700
481.969;   19.165; -158.159;  -73.713
482.255;  -14.971; -439.169; -285.695
482.540;   -7.121; -569.178; -441.680
482.825;   12.098; -395.187; -404.663
483.110;   89.507;  -85.169; -105.696
483.396;  173.937; -840.157; -652.718
483.681;  459.963;  543.826;  730.313
483.966;  136.385; -696.160; -700.712
484.251;   14.862; -404.174; -310.687
484.536;    7.439; -356.165; -378.703
484.822;   14.565; -205.173; -218.687
485.107;  -18.125; -599.152; -502.726
485.392;  131.519;  662.836;  541.296
485.677;   76.467;  354.832;  163.302
485.962;  107.559;  160.843;  270.283
486.247;   88.036;  -14.162;   -8.707
486.532;   40.355; -178.166; -325.701
486.817;  160.972;  381.839;  431.291
487.102;  118.733; -453.154; -514.722
487.387;  633.739; -637.156; -652.718
487.672; 1087.949; -154.164;  -38.705
487.957;  678.854; -394.160; -286.711
488.241;  202.341; -290.150; -314.729
488.526;  679.301; -280.152; -148.726
488.811; 1091.481; -881.177; -818.680
489.096;  846.636; -666.154; -702.723
489.381;  476.422;    3.847;  162.275
489.666;  360.027; -428.161; -510.710
489.950;  172.589;  558.846;  627.277
490.235;  -23.864; -480.151; -458.728
490.520;  -37.399; -756.161; -723.710
490.804;  -53.859; -827.156; -736.719
491.089;   17.732; -469.149; -299.732
491.374;   25.748; -132.164;  -75.704
491.658;    3.718; -817.147; -717.735
491.943;  193.880; -657.152; -609.727
492.227;  276.054; -178.155;  -38.721
492.512;   60.784; -294.157; -341.717
492.797;  -67.749; -713.149; -716.731
493.081;  -48.679; -588.147; -598.735
493.366;  -32.098; -751.161; -635.711
493.650;  206.124;  831.859;  917.254
493.935;   43.443; -648.147; -447.734
494.219;  -34.964; -778.142; -687.743
494.503;  -49.879; -585.150; -487.730
494.788;   39.726;   46.842;   74.285
495.072;  108.893;  184.850;  434.271
495.356;  160.985; -463.148; -343.733
495.641;  483.377; -812.146; -736.736
495.925;  470.046; -976.156; -903.719
496.209;   43.481; -599.149; -451.732
496.494;  -43.638; -763.142; -544.744
496.778;   20.408; -364.154; -360.722
497.062;  -56.530; -819.156; -627.719
497.346;  -41.145; -869.160; -640.711
497.631;  136.489;  580.852;  560.266
497.915;   73.463;  -64.145;  175.261
498.199;   48.112; -341.157; -277.718
498.483;   45.024; -562.152; -508.725
498.767;  178.644;  301.850;  300.271
499.051;  193.429; -126.149; -100.732
499.335;   20.002; -693.149; -739.731
499.619;  -33.951; -381.129; -423.767
499.903;   20.452; -272.155;  -65.721
500.187;   46.615; -588.153; -316.724
500.471;   33.655; -796.152; -595.727
500.755;  111.001;   62.839;  -96.710
501.039;   31.628; -270.155; -357.721
501.323;  103.925;  -21.141;  264.254
501.607;   34.979; -447.163; -503.706
501.891;    0.513; -607.156; -512.718
502.174;  -47.101; -726.144; -585.741
502.458;   89.309;   89.849;  370.273
502.742;   44.899; -180.138; -191.751
503.026;  100.192; -412.147; -254.734
503.310;  161.014; -437.159; -375.713
503.593;  114.744; -464.147; -325.735
503.877;  121.514; -232.133; -156.760
504.161;  199.592;    2.847;  -50.724
504.444;  133.453; -841.158; -710.716
504.728;  430.972; -487.164; -522.704
505.012;  671.516; -257.150;  -76.729
505.295;  515.827; -417.161; -212.711
505.579;  505.295; -256.156; -496.719
505.862;  693.734; -555.145; -333.738
506.146;  685.342; -681.159; -758.714
506.429;  377.092;  568.841;  461.286
506.713;   50.288; -732.151; -667.728
506.996;  307.382;   90.846;  295.278
507.280;  313.542; -633.165; -474.703
507.563;  232.751; -469.155; -261.721
507.847;   81.166; -423.153; -112.724
508.130;   85.728; -665.161; -456.711
508.413;  101.949; -758.167; -577.700
508.697;  230.999; -151.167;   12.300
508.980;  123.692; -422.153; -312.724
509.263;   -4.503; -466.155; -450.720
509.547;   40.265; -124.150;   82.271
509.830;   52.505; -172.160;  140.289
510.113;   91.945;  128.844;  298.281
510.396;   43.073; -530.152; -300.725
510.680;  214.286; -818.145; -812.738
510.963;  772.762;  184.846;  180.277
511.246;  684.248; -493.150; -357.730
511.529;  277.116; -482.145;  -83.739
511.812;  360.236; -250.134;   10.241
512.095;  235.685; -740.151; -396.728
512.378;   69.123; -317.147; -245.736
512.661;   25.207; -703.137; -623.753
512.944;   23.963; -750.142; -637.744
513.227;   79.329; -170.137; -171.752
513.510;   28.449; -479.144; -671.741
513.793;   31.155; -485.140; -435.747
514.076;  139.220;  -43.127;  -39.771
514.359;  114.732; -294.149; -135.732
514.642;   75.516; -442.142; -567.744
514.925;  708.253;  581.860;  561.253
515.208;  910.432; -498.134; -443.758
515.491;  608.521; -276.133; -182.761
515.773;  348.778; -410.143; -337.742
516.056; 1948.813;  249.864;  409.246
516.339; 2658.617; -754.136; -652.755
516.622; 2015.946; -518.150; -488.730
516.904; 1484.260;  882.857;  975.257
517.187;  708.528; -730.138; -523.752
517.470;  406.258; -568.143; -510.743
517.752;  413.420; -624.136; -470.756
518.035;  306.340; -708.139; -725.749
518.318;  356.642; -799.136; -744.755
518.600; 2218.474; -300.132; -325.762
518.883; 3095.190;  310.858;   88.256
519.165; 1481.295; -585.138; -426.751
519.448;  409.749;  -61.132;  -19.762
519.730;  225.002; -573.126; -415.773
520.013;  346.992;  588.867;  664.240
520.295; 1016.737;  -94.134;  -15.759
520.578; 2261.912; -335.131; -305.764
520.860; 2541.874; -254.132;   56.238
521.143; 1288.147; -763.135; -584.756
521.425;  477.490; -251.125; -279.775
521.707;  651.445; -622.127; -380.771
521.990; 1698.795; -199.127;  167.229
522.272; 1881.406; -116.140;   -4.748
522.554;  913.428; -237.143; -157.742
522.836;  423.635;  -24.134;   99.241
523.119;  238.066; -496.148; -189.734
523.401;  147.969; -448.130; -314.766
523.683;   87.157; -865.137; -693.753
523.965;  256.976;  408.862;  260.248
524.247;  260.211;   54.878;  170.220
524.529;  211.137; -451.134; -367.759
524.812;  354.595;   -3.130;  191.234
525.094;  807.750; -773.138; -631.751
525.376; 1258.599; -143.124;   78.223
525.658;  749.464; -441.136; -339.754
525.940;   29.534; -805.131; -671.764
526.222;   45.793; -188.136;  -88.755
526.504;  135.506; -190.131;   32.237
526.786;  245.565; -960.133; -647.760
527.068;  374.604; -124.123;  -67.778
527.349;  175.561; -865.137; -774.754
527.631;  147.424; -137.132;   22.238
527.913;  126.994; -664.127; -450.771
528.195;  160.633; -761.125; -639.774
528.477;  229.607;  -93.134;  -30.758
528.759;  108.795; -648.130; -522.766
529.040;   63.203; -569.123; -293.778
529.322;   56.536; -235.125;  -10.774
529.604;  157.523;  -47.130;   93.233
529.886;  136.602; -546.126; -302.773
530.167;  144.064;  232.870;  192.235
530.449;   51.697;    1.853;   63.265
530.731;   28.560; -572.122; -459.779
531.012;   63.056; -513.120; -216.784
531.294;   59.344; -118.116;  -43.792
531.575;  138.190;  290.875;  538.225
531.857;   52.027; -548.135; -266.757
532.138;   91.199; -113.141;   40.254
532.420;  208.148;  294.865;  403.244
532.701;  266.342; -722.133; -751.760
532.983;  396.870;  232.867;  182.239
533.264;  133.100; -243.126;  175.228
533.546;  -31.208; -491.136; -508.755
533.827;   60.189;  173.867;   -1.759
534.109;   58.977; -352.135;  -80.757
534.390;  108.378; -725.132; -582.762
534.671;  262.598; -270.135;  -82.756
534.953;  155.756; -751.123; -611.779
535.234;   27.254; -426.117; -255.789
535.515;  -90.236; -891.119; -735.785
535.796;  -14.210; -431.128; -193.770
536.078; -107.352;-1050.124; -904.777
536.359;    7.481;  -22.123;    3.221
536.640;  -12.866; -480.125; -197.774
536.921;  161.028;  225.871;  143.232
537.202;  362.797;  -87.138;  -16.751
537.483;  447.061;  251.869;  377.236
537.764;  164.114;   17.870;   98.235
538.045;  -34.244; -543.134; -371.758
538.326;  -36.245; -596.129; -447.768
538.607;   11.121; -686.127; -476.771
538.888;  137.747;   98.879;    5.218
