
Integration time [ms]: 100.000
Averaging Nr. [scans]: 40
Smoothing Nr. [pixels]: 0
Data measured with spectrometer [name]: 2101013U2
Wave   ;Sample   ;Dark     ;Reference
[nm]   ;[counts] ;[counts] ;[counts] 

394.013;   36.626; -450.257; -315.536
394.305;  163.498; -461.258; -419.536
394.596; 1616.373; -676.269; -527.514
394.887; 4229.443; -796.268; -654.518
395.178; 1503.905;  145.736;   11.476
395.470;   78.319; -210.263; -356.526
395.761;  146.661;  305.734;  394.479
396.052;   97.070; -545.284; -306.489
396.343;   86.255; -557.276; -454.503
396.634;   51.142; -200.279; -290.497
396.926;   26.115; -618.268; -565.517
397.217;   62.536;   11.725;  -17.504
397.508;   32.155; -366.273; -154.507
397.799;   33.517; -555.279; -571.497
398.090;   -3.840; -973.280; -902.495
398.381;   62.603;   11.708;  -11.473
398.672;  -25.820; -585.292; -742.473
398.963;   14.324; -348.279; -373.498
399.254;   84.666;   54.709; -209.475
399.545;  -32.518;-1017.266; -883.520
399.836;   41.692; -407.277; -343.501
400.127;   33.300; -205.295; -209.468
400.418;   44.223; -423.274; -392.506
400.709;   23.044; -359.281; -333.493
401.000;   30.696; -268.291; -309.476
401.290;   99.022;  225.698;  115.545
401.581;   66.874; -166.286; -228.485
401.872;   21.865; -542.298; -486.462
402.163;   63.690; -313.296; -252.467
402.454;   89.642; -123.291; -163.475
402.744;   56.355; -844.297; -813.465
403.035;  241.168; -226.293;  -86.471
403.326;  298.858; -366.292; -384.474
403.617;  311.509;  204.701;  165.539
403.907;  352.127; -593.283; -679.490
404.198; 3637.766; -545.307; -599.446
404.489; 9218.658; -618.283; -588.491
404.779; 2585.151; -618.302; -660.456
405.070;  283.650;  -67.304; -174.451
405.360;  471.895; -259.293; -238.472
405.651;  464.890;  125.699;   98.542
405.942;  172.293;  209.714;  127.516
406.232;   96.011; -432.285; -413.487
406.523;  245.061;  641.706;  758.530
406.813;   55.821; -579.286; -644.484
407.104;  198.502;  261.708;  144.527
407.394;   76.010; -604.299; -591.462
407.685;  126.435;  336.715;  222.513
407.975;   53.306; -400.283; -382.490
408.265;  115.484; -134.289; -190.478
408.556;   64.188; -472.291; -459.475
408.846;  170.613;  474.706;  429.530
409.137;  107.295;   -1.288; -216.480
409.427;   58.636; -193.285; -271.487
409.717;   51.559; -776.273; -692.508
410.007;  130.403;    4.715; -170.486
410.298;  109.803; -360.295; -342.469
410.588;   88.657; -495.285; -510.486
410.878;   56.858; -792.287; -873.482
411.168;  118.318; -481.298; -478.463
411.459;  132.075; -295.283; -242.489
411.749;   97.711; -609.292; -507.474
412.039;   85.093; -755.289; -386.480
412.329;  216.008;   40.722;  132.501
412.619;  197.121;  -62.286; -148.485
412.909;  363.888;  639.711;  594.521
413.199;  335.585; -130.280; -251.495
413.490;  378.501;  521.710;  352.523
413.780;  210.665;-1013.279; -913.496
414.070;  380.031;  -46.276;  235.497
414.360;  407.928; -729.278; -666.498
414.650;  539.878; -726.288; -688.482
414.940;  730.839; -538.280; -441.496
415.230; 1251.775;   50.712;   74.519
415.520; 8567.972;  155.730;   66.486
415.809;34861.394; -305.281; -125.493
416.099;26140.070; -388.277; -229.501
416.389; 7833.971;  435.726;  236.494
416.679; 4531.823;   91.738;   85.473
416.969;  757.389; -527.287; -503.483
417.259;  660.392;  341.721;  171.503
417.549;  896.067;  522.718;  318.508
417.838; 2419.892; -205.268; -147.518
418.128; 8400.033;  650.710;  492.522
418.418; 6821.217; -491.272; -579.509
418.708; 4582.571;    9.726;  -48.506
418.997;17895.416; -474.275; -480.505
419.287;18279.154; -733.273; -790.507
419.577;17793.174; -160.283; -123.489
419.866;57272.242; -588.277; -498.501
420.156;55553.092; -242.270;  -55.513
420.446; 9210.964; -112.263;  -26.526
420.735;  905.559; -376.271; -446.512
421.025;  910.152; 1830.722;  315.502
421.314;  571.657; -203.271; -226.512
421.604;  684.508;   89.732;  233.484
421.893;  439.803; -705.271; -602.511
422.183;  288.089; -487.263; -461.526
422.472;  400.929;  -36.271; -107.511
422.762;  398.739; -416.266; -379.521
423.051;  276.782; -916.276; -916.503
423.341;  331.381; -491.273; -439.507
423.630;  416.496; -121.265;   15.477
423.919;  435.890;   58.725;   49.495
424.209;  478.946;  -31.263;   56.473
424.498;  639.114;   68.732;  161.483
424.787; 1478.147; -535.267; -601.518
425.077; 4355.795;   34.735;   29.478
425.366; 4784.928; -734.262; -744.528
425.655;13684.757;  639.727;  259.493
425.945;35227.160; -313.247; -268.554
426.234;18491.155;  117.741;  300.467
426.523; 7436.787;  -86.259; -350.534
426.812; 9956.059;  107.734;  159.480
427.101;15129.379; -127.269; -323.515
427.390;17639.646;  -55.270;  -86.514
427.680; 2540.386; -624.257; -411.538
427.969;  502.824; -330.255; -301.540
428.258;  364.875; -385.257; -477.536
428.547;  522.822;  449.728;  397.490
428.836;  741.744; -421.253; -398.543
429.125; 1052.839; -199.259;  -72.534
429.414;  801.496; -330.251; -294.548
429.703; 4571.421; -231.251; -213.548
429.992;14240.926; -938.250; -828.549
430.281; 8898.506; -397.264; -331.524
430.570;  606.310;  -21.252;   32.454
430.859;  436.211;  279.741;  352.466
431.148;  432.630;  636.752;  631.446
431.437;  324.009;  391.748;  367.454
431.725;  218.152; -544.257; -481.536
432.014;  217.903; -845.253; -756.545
432.303;  420.472; -149.239; -105.569
432.592;  563.714; -460.263; -178.525
432.881; 1436.331; -601.248; -437.554
433.169; 9671.250; -343.255;  -61.540
433.458;19633.013;  445.765;  540.424
433.747; 7627.560; -397.261; -289.529
434.036;  954.893; -275.242; -280.564
434.324; 2960.966; -395.249; -379.551
434.613; 5326.360;   40.757;  159.437
434.902; 1504.810;  333.760;  439.433
435.190;  289.196;   75.761;  295.431
435.479;  176.588;  -52.245;   83.441
435.767;   93.648; -411.244; -427.561
436.056;  201.188; -340.242; -294.563
436.345;  487.638; -372.240; -223.568
436.633;  458.960;   60.750;  383.450
436.922;  197.691;  208.760;  414.432
437.210;  214.826; -194.236;    1.426
437.499;  512.986; -583.235; -432.576
437.787;  590.651; -339.236;  -10.574
438.075;  192.478;   56.761;  162.430
438.364;  207.606;  -44.238;  250.429
438.652;  109.258; -286.226; -138.592
438.941;   86.089;    3.770;  269.415
439.229;  -24.869; -665.252; -466.545
439.517;   33.921; -160.234;  -85.577
439.806;    2.202; -501.225; -290.595
440.094;  143.256;  377.766;  650.421
440.382;   26.960; -653.233; -302.580
440.670;   26.211; -361.235; -285.576
440.959;   -1.926; -347.223; -170.599
441.247;   52.078; -151.229; -109.587
441.535;   51.019; -266.235;   31.423
441.823;   -6.873; -497.234; -305.578
442.111;  151.333;  173.771;  327.412
442.400;  304.887; -628.245; -335.559
442.688;  554.105; -111.234; -620.579
442.976;  256.180; -786.213; -450.617
443.264;   59.235; -324.224; -364.597
443.552;   57.209; -258.226;   51.408
443.840;  138.218;  602.765;  876.423
444.128;   87.259;  265.767;  269.420
444.416;  -15.213; -694.228; -312.588
444.704;    7.335; -465.219;  -92.605
444.992;   60.088;   -0.226;  240.407
445.280;    7.690; -517.230;  -94.585
445.568;    5.510; -694.212; -396.618
445.856;  135.165; -174.221;  357.398
446.143;  271.705;  -54.220;   -7.604
446.431;  243.166;  -25.228;  625.411
446.719;  155.058;  489.783;  675.391
447.007;  161.083;  481.769;  705.416
447.295;  183.870;  597.777;  871.402
447.583;   81.950; -464.229;  -34.587
447.870;  100.336; -434.221; -202.601
448.158;  241.139; -104.230;  129.415
448.446;  135.756; -800.219; -338.604
448.733;  132.412;   13.776;  269.403
449.021;  197.159;   60.788;  341.382
449.309;  170.553; -296.210;  208.379
449.596;  230.053;  128.783;   59.392
449.884;  203.378; -571.222; -325.600
450.172;  289.148; -756.227; -406.590
450.459;  637.210;  645.786;  780.387
450.747; 3827.127; -411.218; -147.608
451.034;12315.042;  493.772;  889.411
451.322; 9939.364; -413.214; -170.614
451.609;  742.814;  292.777;  508.403
451.897;  901.979; -550.203; -183.634
452.184; 2773.670; -622.223; -400.598
452.472; 2427.928;   97.792;  269.375
452.759;  319.007;  512.781;  864.395
453.047;   84.831; -407.212; -125.617
453.334;   42.192; -732.219; -216.606
453.621;   28.167; -438.214; -161.615
453.909;   96.269;   13.796;  384.368
454.196;  117.125; -299.199; -123.641
454.483;  237.620;  317.798;  540.364
454.771;  142.282; -215.208;  196.374
455.058;   53.461; -316.207;  102.374
455.345;  134.567;   71.807;  344.347
455.632;  123.415; -128.207;  235.373
455.919;   63.577;  -82.196;  182.354
456.207;  -49.170; -774.198; -450.642
456.494;   11.435; -475.200;  -66.639
456.781;   15.940; -399.202; -198.635
457.068;   58.148; -253.206;  -29.628
457.355;    3.774; -698.206; -401.629
457.642;   12.956; -552.205; -290.630
457.929;   23.706; -778.194; -417.651
458.216;  118.407; -575.212; -354.617
458.503;  399.012; -173.193;  -19.652
458.790;  419.830; -864.208; -630.625
459.077;  379.021;  -77.202;  110.364
459.364; 1219.372; -350.195; -210.649
459.651; 2584.846;  -46.206;  220.372
459.938; 1141.468; -864.209; -665.623
460.225;  109.425;  132.799;  276.363
460.512;  -39.726; -836.197; -688.645
460.799;  123.925;  -32.218;  320.392
461.086;   93.665; -370.200; -251.640
461.372;   17.481; -509.198; -279.642
461.659;   65.504; -165.196;  108.354
461.946;   42.435; -445.193;  -54.651
462.233;  216.062;  842.800;  888.361
462.519;  499.159; -814.201; -464.639
462.806; 1521.699; -768.197; -497.645
463.093; 1311.110; -445.191;  -66.656
463.380;   12.210; -920.186; -824.664
463.666;   51.526; -259.197;  -18.646
463.953;  129.516; -406.195; -243.648
464.239;  290.066; -173.195;  -77.648
464.526;  413.279;  413.806;  743.350
464.813;  327.024; -565.190; -304.658
465.099;  345.661;  606.807;  607.348
465.386;  266.316;  903.807;  921.348
465.672;   24.274; -694.197; -522.645
465.959;   28.771; -598.188; -520.662
466.245;   15.816; -468.193; -359.652
466.532;   55.713; -109.195;   63.352
466.818;   15.785; -357.186; -216.664
467.104;  -16.366; -488.182; -415.672
467.391;   -8.948; -628.189; -459.658
467.677;   29.264; -289.186;    9.335
467.964;   -3.516; -682.189; -471.660
468.250;   55.143; -331.186; -160.665
468.536;   70.228;   90.811;  180.341
468.822;  -11.293; -821.184; -574.668
469.109;  155.257;  351.827;  471.311
469.395;  205.178;  729.808;  787.346
469.681;  238.882;   46.811;  156.341
469.967; 1830.187; -699.188; -382.660
470.254; 4096.147; -494.188; -306.662
470.540; 2529.677; -601.196; -476.646
470.826;  375.647; -488.181; -397.675
471.112;  417.211;  288.816;  113.331
471.398;   90.617; -253.183;  -58.670
471.684;   35.607; -626.177; -447.680
471.970;   37.102; -918.180; -981.675
472.256;   42.527; -521.192; -441.654
472.542;   32.270; -499.171; -434.691
472.828;   33.704; -743.182; -607.672
473.114;   21.573; -380.166; -283.700
473.400;   12.102; -504.175; -293.684
473.686;   30.106; -452.166; -400.701
473.972;   43.195; -230.174; -131.687
474.258;   -1.068; -925.173; -843.689
474.544;  313.222; -183.178;   -2.679
474.830;  495.929;  -65.175;   45.316
475.116;  814.676; -123.190; -196.658
475.401; 1094.355; -558.180; -467.676
475.687;  278.329; -725.180; -718.676
475.973;   -5.461; -673.181; -770.673
476.259;  238.157;  736.825;  764.315
476.544;  518.442; -539.176; -437.682
476.830; 1369.316; -398.172; -322.690
477.116; 1207.040; -430.177; -336.682
477.401;  168.679;  346.820;  358.324
477.687;  -16.973; -289.175; -405.684
477.973;   41.068;   21.819;   28.326
478.258;    5.606; -448.163; -348.706
478.544;   41.799;   21.815;   61.334
478.829;  -61.573; -818.171; -738.692
479.115;  -40.985; -749.172; -651.690
479.401;    9.514; -444.174; -449.686
479.686;   48.628; -253.180;  -74.676
479.972;   -2.672; -886.178; -776.680
480.257;   48.400; -258.166;  -65.700
480.542;   21.532; -614.170; -469.693
480.828;  227.200; 1288.824; 1392.317
481.113;  -40.978; -464.176; -426.683
481.399;  -14.915; -236.161; -202.711
481.684;  -33.376; -620.166; -462.700
481.969;   25.426; -158.159;  -73.713
482.255;   -7.780; -439.169; -285.695
482.540;    1.378; -569.178; -441.680
482.825;   49.379; -395.187; -404.663
483.110;  145.649;  -85.169; -105.696
483.396;  375.928; -840.157; -652.718
483.681;  751.945;  543.826;  730.313
483.966;  303.144; -696.160; -700.712
484.251;    5.344; -404.174; -310.687
484.536;   -4.212; -356.165; -378.703
484.822;   36.097; -205.173; -218.687
485.107;  -19.376; -599.152; -502.726
485.392;  129.019;  662.836;  541.296
485.677;   84.561;  354.832;  163.302
485.962;  113.549;  160.843;  270.283
486.247;  105.941;  -14.162;   -8.707
486.532;   75.902; -178.166; -325.701
486.817;  190.828;  381.839;  431.291
487.102;  152.628; -453.154; -514.722
487.387; 1082.655; -637.156; -652.718
487.672; 1936.376; -154.164;  -38.705
487.957; 1190.312; -394.160; -286.711
488.241;  319.944; -290.150; -314.729
488.526; 1171.201; -280.152; -148.726
488.811; 2018.506; -881.177; -818.680
489.096; 1376.007; -666.154; -702.723
489.381;  731.021;    3.847;  162.275
489.666;  644.910; -428.161; -510.710
489.950;  209.910;  558.846;  627.277
490.235;  -23.262; -480.151; -458.728
490.520;  -48.842; -756.161; -723.710
490.804;  -30.318; -827.156; -736.719
491.089;   28.688; -469.149; -299.732
491.374;   50.199; -132.164;  -75.704
491.658;  -12.473; -817.147; -717.735
491.943;  118.731; -657.152; -609.727
492.227;  219.998; -178.155;  -38.721
492.512;   46.374; -294.157; -341.717
492.797;  -55.944; -713.149; -716.731
493.081;  -40.844; -588.147; -598.735
493.366;  -31.890; -751.161; -635.711
493.650;  209.395;  831.859;  917.254
493.935;   71.727; -648.147; -447.734
494.219;  -27.970; -778.142; -687.743
494.503;  -23.650; -585.150; -487.730
494.788;   65.364;   46.842;   74.285
495.072;  126.946;  184.850;  434.271
495.356;  234.667; -463.148; -343.733
495.641;  522.589; -812.146; -736.736
495.925;  450.113; -976.156; -903.719
496.209;   22.838; -599.149; -451.732
496.494;  -36.369; -763.142; -544.744
496.778;    5.128; -364.154; -360.722
497.062;  -35.262; -819.156; -627.719
497.346;    1.439; -869.160; -640.711
497.631;  177.697;  580.852;  560.266
497.915;   72.376;  -64.145;  175.261
498.199;   57.153; -341.157; -277.718
498.483;   33.849; -562.152; -508.725
498.767;  252.397;  301.850;  300.271
499.051;  266.735; -126.149; -100.732
499.335;   78.633; -693.149; -739.731
499.619;  -31.282; -381.129; -423.767
499.903;   16.947; -272.155;  -65.721
500.187;   16.812; -588.153; -316.724
500.471;   32.255; -796.152; -595.727
500.755;   97.409;   62.839;  -96.710
501.039;   -0.653; -270.155; -357.721
501.323;   59.823;  -21.141;  264.254
501.607;   34.956; -447.163; -503.706
501.891;   -5.096; -607.156; -512.718
502.174;  -29.410; -726.144; -585.741
502.458;   63.235;   89.849;  370.273
502.742;   52.477; -180.138; -191.751
503.026;  182.751; -412.147; -254.734
503.310;  325.175; -437.159; -375.713
503.593;  201.303; -464.147; -325.735
503.877;  134.326; -232.133; -156.760
504.161;  182.665;    2.847;  -50.724
504.444;  191.442; -841.158; -710.716
504.728;  783.423; -487.164; -522.704
505.012; 1118.818; -257.150;  -76.729
505.295;  796.160; -417.161; -212.711
505.579;  826.087; -256.156; -496.719
505.862; 1272.722; -555.145; -333.738
506.146; 1270.778; -681.159; -758.714
506.429;  557.453;  568.841;  461.286
506.713;  131.715; -732.151; -667.728
506.996;  486.053;   90.846;  295.278
507.280;  557.142; -633.165; -474.703
507.563;  389.420; -469.155; -261.721
507.847;  200.838; -423.153; -112.724
508.130;  165.286; -665.161; -456.711
508.413;  214.620; -758.167; -577.700
508.697;  401.345; -151.167;   12.300
508.980;  274.190; -422.153; -312.724
509.263;   24.115; -466.155; -450.720
509.547;   55.118; -124.150;   82.271
509.830;   44.088; -172.160;  140.289
510.113;  103.812;  128.844;  298.281
510.396;   53.522; -530.152; -300.725
510.680;   58.749; -818.145; -812.738
510.963;  186.908;  184.846;  180.277
511.246;  117.478; -493.150; -357.730
511.529;  278.180; -482.145;  -83.739
511.812;  615.596; -250.134;   10.241
512.095;  472.761; -740.151; -396.728
512.378;  107.433; -317.147; -245.736
512.661;   75.111; -703.137; -623.753
512.944;  101.032; -750.142; -637.744
513.227;  100.582; -170.137; -171.752
513.510;   72.715; -479.144; -671.741
513.793;   34.378; -485.140; -435.747
514.076;  164.119;  -43.127;  -39.771
514.359;  159.739; -294.149; -135.732
514.642;  154.161; -442.142; -567.744
514.925; 1141.726;  581.860;  561.253
515.208; 1658.242; -498.134; -443.758
515.491; 1052.384; -276.133; -182.761
515.773;  587.620; -410.143; -337.742
516.056; 3274.344;  249.864;  409.246
516.339; 4337.898; -754.136; -652.755
516.622; 2038.050; -518.150; -488.730
516.904;  560.428;  882.857;  975.257
517.187;  217.381; -730.138; -523.752
517.470;  418.952; -568.143; -510.743
517.752;  727.952; -624.136; -470.756
518.035;  586.691; -708.139; -725.749
518.318;  632.023; -799.136; -744.755
518.600; 4006.713; -300.132; -325.762
518.883; 5514.110;  310.858;   88.256
519.165; 2509.597; -585.138; -426.751
519.448;  434.063;  -61.132;  -19.762
519.730;  197.628; -573.126; -415.773
520.013;  245.629;  588.867;  664.240
520.295;  312.048;  -94.134;  -15.759
520.578;  657.403; -335.131; -305.764
520.860;  902.038; -254.132;   56.238
521.143;  649.179; -763.135; -584.756
521.425;  601.718; -251.125; -279.775
521.707;  977.394; -622.127; -380.771
521.990; 2823.870; -199.127;  167.229
522.272; 3273.155; -116.140;   -4.748
522.554; 1196.120; -237.143; -157.742
522.836;  256.746;  -24.134;   99.241
523.119;  187.575; -496.148; -189.734
523.401;  178.087; -448.130; -314.766
523.683;  160.061; -865.137; -693.753
523.965;  399.503;  408.862;  260.248
524.247;  437.169;   54.878;  170.220
524.529;  311.998; -451.134; -367.759
524.812;  497.089;   -3.130;  191.234
525.094; 1409.303; -773.138; -631.751
525.376; 2199.480; -143.124;   78.223
525.658; 1319.970; -441.136; -339.754
525.940;   95.049; -805.131; -671.764
526.222;   32.299; -188.136;  -88.755
526.504;   50.347; -190.131;   32.237
526.786;   28.976; -960.133; -647.760
527.068;  110.336; -124.123;  -67.778
527.349;    1.916; -865.137; -774.754
527.631;  122.387; -137.132;   22.238
527.913;  243.968; -664.127; -450.771
528.195;  327.860; -761.125; -639.774
528.477;  384.842;  -93.134;  -30.758
528.759;  277.764; -648.130; -522.766
529.040;  143.360; -569.123; -293.778
529.322;   85.313; -235.125;  -10.774
529.604;   83.717;  -47.130;   93.233
529.886;   48.052; -546.126; -302.773
530.167;   81.207;  232.870;  192.235
530.449;   48.282;    1.853;   63.265
530.731;   78.818; -572.122; -459.779
531.012;  154.819; -513.120; -216.784
531.294;  127.791; -118.116;  -43.792
531.575;  186.593;  290.875;  538.225
531.857;  135.586; -548.135; -266.757
532.138;  117.621; -113.141;   40.254
532.420;  116.731;  294.865;  403.244
532.701;   81.604; -722.133; -751.760
532.983;  189.208;  232.867;  182.239
533.264;   60.350; -243.126;  175.228
533.546;  -48.851; -491.136; -508.755
533.827;   31.625;  173.867;   -1.759
534.109;   12.861; -352.135;  -80.757
534.390;   79.117; -725.132; -582.762
534.671;  297.456; -270.135;  -82.756
534.953;  208.663; -751.123; -611.779
535.234;   58.848; -426.117; -255.789
535.515;  -57.196; -891.119; -735.785
535.796;    2.063; -431.128; -193.770
536.078; -102.996;-1050.124; -904.777
536.359;    1.814;  -22.123;    3.221
536.640;   -9.488; -480.125; -197.774
536.921;  157.473;  225.871;  143.232
537.202;  547.324;  -87.138;  -16.751
537.483;  690.703;  251.869;  377.236
537.764;  271.857;   17.870;   98.235
538.045;  -28.684; -543.134; -371.758
538.326;  -17.775; -596.129; -447.768
538.607;   79.820; -686.127; -476.771
538.888;  270.108;   98.879;    5.218
