
Integration time [ms]: 100.000
Averaging Nr. [scans]: 40
Smoothing Nr. [pixels]: 0
Data measured with spectrometer [name]: 2101013U2
Wave   ;Sample   ;Dark     ;Reference
[nm]   ;[counts] ;[counts] ;[counts] 

394.013;   51.335; -450.257; -315.536
394.305;  181.332; -461.258; -419.536
394.596; 1620.331; -676.269; -527.514
394.887; 4261.901; -796.268; -654.518
395.178; 1511.164;  145.736;   11.476
395.470;   80.453; -210.263; -356.526
395.761;  133.995;  305.734;  394.479
396.052;   99.577; -545.284; -306.489
396.343;   64.813; -557.276; -454.503
396.634;   43.775; -200.279; -290.497
396.926;   20.648; -618.268; -565.517
397.217;   63.419;   11.725;  -17.504
397.508;   29.288; -366.273; -154.507
397.799;   23.900; -555.279; -571.497
398.090;   11.143; -973.280; -902.495
398.381;   91.360;   11.708;  -11.473
398.672;  -26.788; -585.292; -742.473
398.963;   23.707; -348.279; -373.498
399.254;   77.223;   54.709; -209.475
399.545;  -16.610;-1017.266; -883.520
399.836;   50.700; -407.277; -343.501
400.127;   49.656; -205.295; -209.468
400.418;   30.531; -423.274; -392.506
400.709;   39.577; -359.281; -333.493
401.000;   52.828; -268.291; -309.476
401.290;  112.353;  225.698;  115.545
401.581;   70.156; -166.286; -228.485
401.872;   37.522; -542.298; -486.462
402.163;   56.922; -313.296; -252.467
402.454;   95.224; -123.291; -163.475
402.744;   57.736; -844.297; -813.465
403.035;  234.100; -226.293;  -86.471
403.326;  307.040; -366.292; -384.474
403.617;  339.115;  204.701;  165.539
403.907;  374.934; -593.283; -679.490
404.198; 3706.697; -545.307; -599.446
404.489; 9367.015; -618.283; -588.491
404.779; 2609.608; -618.302; -660.456
405.070;  299.457;  -67.304; -174.451
405.360;  503.577; -259.293; -238.472
405.651;  487.747;  125.699;   98.542
405.942;  179.100;  209.714;  127.516
406.232;  102.893; -432.285; -413.487
406.523;  259.343;  641.706;  758.530
406.813;   59.278; -579.286; -644.484
407.104;  215.159;  261.708;  144.527
407.394;   84.192; -604.299; -591.462
407.685;  151.692;  336.715;  222.513
407.975;   68.564; -400.283; -382.490
408.265;  121.291; -134.289; -190.478
408.556;   68.295; -472.291; -459.475
408.846;  170.594;  474.706;  429.530
409.137;  109.527;   -1.288; -216.480
409.427;   94.218; -193.285; -271.487
409.717;   57.467; -776.273; -692.508
410.007;  126.710;    4.715; -170.486
410.298;  118.935; -360.295; -342.469
410.588;  117.240; -495.285; -510.486
410.878;   51.065; -792.287; -873.482
411.168;  129.900; -481.298; -478.463
411.459;  133.157; -295.283; -242.489
411.749;  101.468; -609.292; -507.474
412.039;   75.900; -755.289; -386.480
412.329;  240.691;   40.722;  132.501
412.619;  222.779;  -62.286; -148.485
412.909;  365.745;  639.711;  594.521
413.199;  313.793; -130.280; -251.495
413.490;  396.458;  521.710;  352.523
413.780;  229.623;-1013.279; -913.496
414.070;  410.964;  -46.276;  235.497
414.360;  411.436; -729.278; -666.498
414.650;  558.135; -726.288; -688.482
414.940;  781.547; -538.280; -441.496
415.230; 1244.432;   50.712;   74.519
415.520; 8702.855;  155.730;   66.486
415.809;35352.601; -305.281; -125.493
416.099;26362.352; -388.277; -229.501
416.389; 7975.829;  435.726;  236.494
416.679; 4554.532;   91.738;   85.473
416.969;  792.596; -527.287; -503.483
417.259;  671.850;  341.721;  171.503
417.549;  918.800;  522.718;  318.508
417.838; 2460.401; -205.268; -147.518
418.128; 8543.515;  650.710;  492.522
418.418; 6975.650; -491.272; -579.509
418.708; 4613.154;    9.726;  -48.506
418.997;18111.374; -474.275; -480.505
419.287;18307.337; -733.273; -790.507
419.577;18004.856; -160.283; -123.489
419.866;57717.975; -588.277; -498.501
420.156;55897.500; -242.270;  -55.513
420.446; 9242.773; -112.263;  -26.526
420.735;  917.668; -376.271; -446.512
421.025;  921.035; 1830.722;  315.502
421.314;  565.890; -203.271; -226.512
421.604;  688.642;   89.732;  233.484
421.893;  441.836; -705.271; -602.511
422.183;  311.273; -487.263; -461.526
422.472;  412.463;  -36.271; -107.511
422.762;  421.248; -416.266; -379.521
423.051;  272.390; -916.276; -916.503
423.341;  340.389; -491.273; -439.507
423.630;  420.505; -121.265;   15.477
423.919;  431.898;   58.725;   49.495
424.209;  498.305;  -31.263;   56.473
424.498;  650.973;   68.732;  161.483
424.787; 1487.755; -535.267; -601.518
425.077; 4388.953;   34.735;   29.478
425.366; 4728.312; -734.262; -744.528
425.655;13589.590;  639.727;  259.493
425.945;35222.970; -313.247; -268.554
426.234;18509.564;  117.741;  300.467
426.523; 7519.071;  -86.259; -350.534
426.812;10058.668;  107.734;  159.480
427.101;15173.662; -127.269; -323.515
427.390;17708.405;  -55.270;  -86.514
427.680; 2487.620; -624.257; -411.538
427.969;  500.083; -330.255; -301.540
428.258;  387.635; -385.257; -477.536
428.547;  524.405;  449.728;  397.490
428.836;  713.803; -421.253; -398.543
429.125; 1003.198; -199.259;  -72.534
429.414;  790.181; -330.251; -294.548
429.703; 4649.931; -231.251; -213.548
429.992;14391.485; -938.250; -828.549
430.281; 9030.689; -397.264; -331.524
430.570;  644.169;  -21.252;   32.454
430.859;  465.845;  279.741;  352.466
431.148;  462.540;  636.752;  631.446
431.437;  343.343;  391.748;  367.454
431.725;  232.936; -544.257; -481.536
432.014;  224.962; -845.253; -756.545
432.303;  433.782; -149.239; -105.569
432.592;  582.822; -460.263; -178.525
432.881; 1448.791; -601.248; -437.554
433.169; 9774.184; -343.255;  -61.540
433.458;19724.449;  445.765;  540.424
433.747; 7625.568; -397.261; -289.529
434.036;  955.328; -275.242; -280.564
434.324; 2984.725; -395.249; -379.551
434.613; 5380.720;   40.757;  159.437
434.902; 1529.395;  333.760;  439.433
435.190;  300.706;   75.761;  295.431
435.479;  194.823;  -52.245;   83.441
435.767;  115.957; -411.244; -427.561
436.056;  254.723; -340.242; -294.563
436.345;  524.448; -372.240; -223.568
436.633;  469.395;   60.750;  383.450
436.922;  204.901;  208.760;  414.432
437.210;  249.887; -194.236;    1.426
437.499;  487.271; -583.235; -432.576
437.787;  571.761; -339.236;  -10.574
438.075;  182.338;   56.761;  162.430
438.364;  219.891;  -44.238;  250.429
438.652;  124.444; -286.226; -138.592
438.941;   93.800;    3.770;  269.415
439.229;    2.541; -665.252; -466.545
439.517;   47.132; -160.234;  -85.577
439.806;   -0.212; -501.225; -290.595
440.094;  172.391;  377.766;  650.421
440.382;   59.421; -653.233; -302.580
440.670;   57.771; -361.235; -285.576
440.959;   13.835; -347.223; -170.599
441.247;   60.514; -151.229; -109.587
441.535;   54.480; -266.235;   31.423
441.823;   11.688; -497.234; -305.578
442.111;  158.419;  173.771;  327.412
442.400;  303.197; -628.245; -335.559
442.688;  517.291; -111.234; -620.579
442.976;  246.642; -786.213; -450.617
443.264;   44.072; -324.224; -364.597
443.552;   67.495; -258.226;   51.408
443.840;  139.328;  602.765;  876.423
444.128;  113.795;  265.767;  269.420
444.416;   -3.053; -694.228; -312.588
444.704;   34.321; -465.219;  -92.605
444.992;   80.474;   -0.226;  240.407
445.280;   22.926; -517.230;  -94.585
445.568;    2.247; -694.212; -396.618
445.856;  150.027; -174.221;  357.398
446.143;  249.392;  -54.220;   -7.604
446.431;  236.927;  -25.228;  625.411
446.719;  168.020;  489.783;  675.391
447.007;  156.594;  481.769;  705.416
447.295;  178.606;  597.777;  871.402
447.583;   84.611; -464.229;  -34.587
447.870;  134.398; -434.221; -202.601
448.158;  249.924; -104.230;  129.415
448.446;  137.818; -800.219; -338.604
448.733;  155.248;   13.776;  269.403
449.021;  208.946;   60.788;  341.382
449.309;  172.665; -296.210;  208.379
449.596;  256.190;  128.783;   59.392
449.884;  229.865; -571.222; -325.600
450.172;  306.609; -756.227; -406.590
450.459;  661.097;  645.786;  780.387
450.747; 3869.463; -411.218; -147.608
451.034;12447.553;  493.772;  889.411
451.322; 9924.625; -413.214; -170.614
451.609;  773.925;  292.777;  508.403
451.897;  932.142; -550.203; -183.634
452.184; 2805.531; -622.223; -400.598
452.472; 2456.941;   97.792;  269.375
452.759;  353.519;  512.781;  864.395
453.047;  105.943; -407.212; -125.617
453.334;   51.603; -732.219; -216.606
453.621;   58.953; -438.214; -161.615
453.909;  124.607;   13.796;  384.368
454.196;  123.587; -299.199; -123.641
454.483;  247.358;  317.798;  540.364
454.771;  162.694; -215.208;  196.374
455.058;   74.173; -316.207;  102.374
455.345;  169.330;   71.807;  344.347
455.632;  133.652; -128.207;  235.373
455.919;   75.340;  -82.196;  182.354
456.207;  -41.232; -774.198; -450.642
456.494;   19.047; -475.200;  -66.639
456.781;   32.377; -399.202; -198.635
457.068;   82.210; -253.206;  -29.628
457.355;   16.762; -698.206; -401.629
457.642;   27.893; -552.205; -290.630
457.929;   45.669; -778.194; -417.651
458.216;  126.619; -575.212; -354.617
458.503;  407.750; -173.193;  -19.652
458.790;  431.592; -864.208; -630.625
459.077;  399.408;  -77.202;  110.364
459.364; 1264.635; -350.195; -210.649
459.651; 2632.083;  -46.206;  220.372
459.938; 1165.005; -864.209; -665.623
460.225;  127.687;  132.799;  276.363
460.512;  -22.963; -836.197; -688.645
460.799;  148.062;  -32.218;  320.392
461.086;  119.503; -370.200; -251.640
461.372;   40.218; -509.198; -279.642
461.659;   77.491; -165.196;  108.354
461.946;   47.648; -445.193;  -54.651
462.233;  227.925;  842.800;  888.361
462.519;  480.071; -814.201; -464.639
462.806; 1563.737; -768.197; -497.645
463.093; 1340.673; -445.191;  -66.656
463.380;   15.249; -920.186; -824.664
463.666;   59.989; -259.197;  -18.646
463.953;  120.779; -406.195; -243.648
464.239;  290.204; -173.195;  -77.648
464.526;  397.417;  413.806;  743.350
464.813;  334.812; -565.190; -304.658
465.099;  347.374;  606.807;  607.348
465.386;  269.929;  903.807;  921.348
465.672;   28.962; -694.197; -522.645
465.959;   61.684; -598.188; -520.662
466.245;   23.179; -468.193; -359.652
466.532;   78.801; -109.195;   63.352
466.818;   41.723; -357.186; -216.664
467.104;  -11.277; -488.182; -415.672
467.391;    5.490; -628.189; -459.658
467.677;   44.528; -289.186;    9.335
467.964;    6.548; -682.189; -471.660
468.250;   53.906; -331.186; -160.665
468.536;   97.416;   90.811;  180.341
468.822;   -0.229; -821.184; -574.668
469.109;  167.796;  351.827;  471.311
469.395;  217.566;  729.808;  787.346
469.681;  257.720;   46.811;  156.341
469.967; 1867.101; -699.188; -382.660
470.254; 4118.410; -494.188; -306.662
470.540; 2561.265; -601.196; -476.646
470.826;  390.436; -488.181; -397.675
471.112;  415.975;  288.816;  113.331
471.398;  110.856; -253.183;  -58.670
471.684;   57.671; -626.177; -447.680
471.970;   37.266; -918.180; -981.675
472.256;   71.465; -521.192; -441.654
472.542;   34.935; -499.171; -434.691
472.828;   53.293; -743.182; -607.672
473.114;   54.513; -380.166; -283.700
473.400;   51.266; -504.175; -293.684
473.686;   59.171; -452.166; -400.701
473.972;   61.909; -230.174; -131.687
474.258;    0.772; -925.173; -843.689
474.544;  349.536; -183.178;   -2.679
474.830;  512.418;  -65.175;   45.316
475.116;  823.814; -123.190; -196.658
475.401; 1128.194; -558.180; -467.676
475.687;  299.217; -725.180; -718.676
475.973;    3.428; -673.181; -770.673
476.259;  255.271;  736.825;  764.315
476.544;  550.931; -539.176; -437.682
476.830; 1407.905; -398.172; -322.690
477.116; 1214.279; -430.177; -336.682
477.401;  186.318;  346.820;  358.324
477.687;    6.391; -289.175; -405.684
477.973;   54.182;   21.819;   28.326
478.258;   -6.479; -448.163; -348.706
478.544;   53.888;   21.815;   61.334
478.829;  -54.658; -818.171; -738.692
479.115;  -31.620; -749.172; -651.690
479.401;   -0.672; -444.174; -449.686
479.686;   71.517; -253.180;  -74.676
479.972;   17.667; -886.178; -776.680
480.257;   47.565; -258.166;  -65.700
480.542;   52.521; -614.170; -469.693
480.828;  249.039; 1288.824; 1392.317
481.113;  -12.939; -464.176; -426.683
481.399;   -5.425; -236.161; -202.711
481.684;  -34.836; -620.166; -462.700
481.969;   45.366; -158.159;  -73.713
482.255;    6.684; -439.169; -285.695
482.540;   24.792; -569.178; -441.680
482.825;   61.843; -395.187; -404.663
483.110;  178.338;  -85.169; -105.696
483.396;  372.018; -840.157; -652.718
483.681;  772.484;  543.826;  730.313
483.966;  303.784; -696.160; -700.712
484.251;   16.958; -404.174; -310.687
484.536;   22.327; -356.165; -378.703
484.822;   41.262; -205.173; -218.687
485.107;   -4.810; -599.152; -502.726
485.392;  134.059;  662.836;  541.296
485.677;   99.100;  354.832;  163.302
485.962;  124.815;  160.843;  270.283
486.247;  136.581;  -14.162;   -8.707
486.532;   84.691; -178.166; -325.701
486.817;  200.643;  381.839;  431.291
487.102;  163.869; -453.154; -514.722
487.387; 1086.045; -637.156; -652.718
487.672; 1981.666; -154.164;  -38.705
487.957; 1207.077; -394.160; -286.711
488.241;  337.685; -290.150; -314.729
488.526; 1190.641; -280.152; -148.726
488.811; 2017.270; -881.177; -818.680
489.096; 1383.747; -666.154; -702.723
489.381;  719.937;    3.847;  162.275
489.666;  660.250; -428.161; -510.710
489.950;  212.526;  558.846;  627.277
490.235;   -6.146; -480.151; -458.728
490.520;  -21.527; -756.161; -723.710
490.804;  -25.252; -827.156; -736.719
491.089;   31.504; -469.149; -299.732
491.374;   52.164; -132.164;  -75.704
491.658;   -3.882; -817.147; -717.735
491.943;  124.721; -657.152; -609.727
492.227;  212.189; -178.155;  -38.721
492.512;   53.939; -294.157; -341.717
492.797;  -39.903; -713.149; -716.731
493.081;  -40.928; -588.147; -598.735
493.366;  -24.950; -751.161; -635.711
493.650;  217.712;  831.859;  917.254
493.935;   81.743; -648.147; -447.734
494.219;  -10.179; -778.142; -687.743
494.503;   -2.059; -585.150; -487.730
494.788;   64.579;   46.842;   74.285
495.072;  135.787;  184.850;  434.271
495.356;  251.833; -463.148; -343.733
495.641;  554.505; -812.146; -736.736
495.925;  461.854; -976.156; -903.719
496.209;   29.404; -599.149; -451.732
496.494;  -39.303; -763.142; -544.744
496.778;   19.694; -364.154; -360.722
497.062;  -38.047; -819.156; -627.719
497.346;   24.729; -869.160; -640.711
497.631;  173.263;  580.852;  560.266
497.915;   94.193;  -64.145;  175.261
498.199;   38.543; -341.157; -277.718
498.483;   56.014; -562.152; -508.725
498.767;  250.638;  301.850;  300.271
499.051;  297.226; -126.149; -100.732
499.335;   76.923; -693.149; -739.731
499.619;  -10.365; -381.129; -423.767
499.903;   32.787; -272.155;  -65.721
500.187;   43.103; -588.153; -316.724
500.471;   28.121; -796.152; -595.727
500.755;  101.774;   62.839;  -96.710
501.039;   16.013; -270.155; -357.721
501.323;   56.064;  -21.141;  264.254
501.607;   23.146; -447.163; -503.706
501.891;   21.995; -607.156; -512.718
502.174;  -35.494; -726.144; -585.741
502.458;   68.175;   89.849;  370.273
502.742;   54.943; -180.138; -191.751
503.026;  220.917; -412.147; -254.734
503.310;  339.190; -437.159; -375.713
503.593;  218.219; -464.147; -325.735
503.877;  144.492; -232.133; -156.760
504.161;  194.306;    2.847;  -50.724
504.444;  187.157; -841.158; -710.716
504.728;  792.313; -487.164; -522.704
505.012; 1113.709; -257.150;  -76.729
505.295;  814.000; -417.161; -212.711
505.579;  847.428; -256.156; -496.719
505.862; 1259.838; -555.145; -333.738
506.146; 1259.943; -681.159; -758.714
506.429;  586.994;  568.841;  461.286
506.713;  138.881; -732.151; -667.728
506.996;  485.768;   90.846;  295.278
507.280;  577.232; -633.165; -474.703
507.563;  396.185; -469.155; -261.721
507.847;  201.079; -423.153; -112.724
508.130;  182.501; -665.161; -456.711
508.413;  228.610; -758.167; -577.700
508.697;  402.185; -151.167;   12.300
508.980;  279.030; -422.153; -312.724
509.263;   27.356; -466.155; -450.720
509.547;   52.059; -124.150;   82.271
509.830;   61.179; -172.160;  140.289
510.113;   99.928;  128.844;  298.281
510.396;   63.737; -530.152; -300.725
510.680;   49.365; -818.145; -812.738
510.963;  210.274;  184.846;  180.277
511.246;  109.243; -493.150; -357.730
511.529;  284.846; -482.145;  -83.739
511.812;  618.063; -250.134;   10.241
512.095;  479.877; -740.151; -396.728
512.378;  109.424; -317.147; -245.736
512.661;   74.052; -703.137; -623.753
512.944;   87.249; -750.142; -637.744
513.227;  110.524; -170.137; -171.752
513.510;   69.331; -479.144; -671.741
513.793;   59.819; -485.140; -435.747
514.076;  164.961;  -43.127;  -39.771
514.359;  181.755; -294.149; -135.732
514.642;  168.402; -442.142; -567.744
514.925; 1126.717;  581.860;  561.253
515.208; 1689.384; -498.134; -443.758
515.491; 1041.826; -276.133; -182.761
515.773;  599.386; -410.143; -337.742
516.056; 3331.885;  249.864;  409.246
516.339; 4376.740; -754.136; -652.755
516.622; 1988.565; -518.150; -488.730
516.904;  540.769;  882.857;  975.257
517.187;  220.972; -730.138; -523.752
517.470;  440.918; -568.143; -510.743
517.752;  732.743; -624.136; -470.756
518.035;  587.307; -708.139; -725.749
518.318;  632.715; -799.136; -744.755
518.600; 4001.805; -300.132; -325.762
518.883; 5542.176;  310.858;   88.256
519.165; 2509.163; -585.138; -426.751
519.448;  433.554;  -61.132;  -19.762
519.730;  228.320; -573.126; -415.773
520.013;  252.896;  588.867;  664.240
520.295;  298.315;  -94.134;  -15.759
520.578;  611.395; -335.131; -305.764
520.860;  838.155; -254.132;   56.238
521.143;  607.021; -763.135; -584.756
521.425;  586.111; -251.125; -279.775
521.707;  976.886; -622.127; -380.771
521.990; 2810.512; -199.127;  167.229
522.272; 3251.996; -116.140;   -4.748
522.554; 1170.137; -237.143; -157.742
522.836;  254.988;  -24.134;   99.241
523.119;  203.290; -496.148; -189.734
523.401;  183.729; -448.130; -314.766
523.683;  163.828; -865.137; -693.753
523.965;  424.845;  408.862;  260.248
524.247;  448.312;   54.878;  170.220
524.529;  326.315; -451.134; -367.759
524.812;  492.506;   -3.130;  191.234
525.094; 1403.044; -773.138; -631.751
525.376; 2182.922; -143.124;   78.223
525.658; 1344.462; -441.136; -339.754
525.940;  100.541; -805.131; -671.764
526.222;   47.791; -188.136;  -88.755
526.504;   67.889; -190.131;   32.237
526.786;   33.518; -960.133; -647.760
527.068;  116.354; -124.123;  -67.778
527.349;    5.632; -865.137; -774.754
527.631;  111.704; -137.132;   22.238
527.913;  255.135; -664.127; -450.771
528.195;  328.927; -761.125; -639.774
528.477;  399.034;  -93.134;  -30.758
528.759;  267.406; -648.130; -522.766
529.040;  157.002; -569.123; -293.778
529.322;   83.006; -235.125;  -10.774
529.604;  103.234;  -47.130;   93.233
529.886;   44.595; -546.126; -302.773
530.167;   68.224;  232.870;  192.235
530.449;   59.698;    1.853;   63.265
530.731;   79.311; -572.122; -459.779
531.012;  166.061; -513.120; -216.784
531.294;  127.134; -118.116;  -43.792
531.575;  214.786;  290.875;  538.225
531.857;  154.903; -548.135; -266.757
532.138;  133.737; -113.141;   40.254
532.420;  118.773;  294.865;  403.244
532.701;   54.271; -722.133; -751.760
532.983;  199.000;  232.867;  182.239
533.264;   42.592; -243.126;  175.228
533.546;  -39.934; -491.136; -508.755
533.827;   33.117;  173.867;   -1.759
534.109;   13.302; -352.135;  -80.757
534.390;  105.134; -725.132; -582.762
534.671;  315.773; -270.135;  -82.756
534.953;  220.605; -751.123; -611.779
535.234;   58.716; -426.117; -255.789
535.515;  -46.079; -891.119; -735.785
535.796;   18.930; -431.128; -193.770
536.078;  -85.579;-1050.124; -904.777
536.359;   19.481;  -22.123;    3.221
536.640;   -3.421; -480.125; -197.774
536.921;  174.915;  225.871;  143.232
537.202;  550.065;  -87.138;  -16.751
537.483;  682.120;  251.869;  377.236
537.764;  268.224;   17.870;   98.235
538.045;  -27.367; -543.134; -371.758
538.326;  -20.883; -596.129; -447.768
538.607;   75.862; -686.127; -476.771
538.888;  280.075;   98.879;    5.218
