
Integration time [ms]: 100.000
Averaging Nr. [scans]: 40
Smoothing Nr. [pixels]: 0
Data measured with spectrometer [name]: 2101013U2
Wave   ;Sample   ;Dark     ;Reference
[nm]   ;[counts] ;[counts] ;[counts] 

394.013;   46.993; -450.257; -315.536
394.305;  205.191; -461.258; -419.536
394.596; 1073.963; -676.269; -527.514
394.887; 2636.080; -796.268; -654.518
395.178; 1043.435;  145.736;   11.476
395.470;   81.847; -210.263; -356.526
395.761;  200.820;  305.734;  394.479
396.052;  300.788; -545.284; -306.489
396.343;  303.558; -557.276; -454.503
396.634;  140.977; -200.279; -290.497
396.926;  136.552; -618.268; -565.517
397.217;  139.687;   11.725;  -17.504
397.508;   46.003; -366.273; -154.507
397.799;   42.927; -555.279; -571.497
398.090;    3.521; -973.280; -902.495
398.381;  138.638;   11.708;  -11.473
398.672;    7.314; -585.292; -742.473
398.963;   59.508; -348.279; -373.498
399.254;  104.223;   54.709; -209.475
399.545;  -28.809;-1017.266; -883.520
399.836;   76.222; -407.277; -343.501
400.127;   66.414; -205.295; -209.468
400.418;   76.623; -423.274; -392.506
400.709;   74.908; -359.281; -333.493
401.000;   51.927; -268.291; -309.476
401.290;  127.551;  225.698;  115.545
401.581;   73.546; -166.286; -228.485
401.872;   20.586; -542.298; -486.462
402.163;   66.182; -313.296; -252.467
402.454;   94.149; -123.291; -163.475
402.744;   72.723; -844.297; -813.465
403.035;  483.679; -226.293;  -86.471
403.326;  623.517; -366.292; -384.474
403.617;  428.580;  204.701;  165.539
403.907;  257.194; -593.283; -679.490
404.198; 2349.655; -545.307; -599.446
404.489; 6156.999; -618.283; -588.491
404.779; 2139.329; -618.302; -660.456
405.070;  232.033;  -67.304; -174.451
405.360;  342.181; -259.293; -238.472
405.651;  383.140;  125.699;   98.542
405.942;  201.066;  209.714;  127.516
406.232;  298.955; -432.285; -413.487
406.523;  537.374;  641.706;  758.530
406.813;  112.493; -579.286; -644.484
407.104;  370.787;  261.708;  144.527
407.394;  209.607; -604.299; -591.462
407.685;  161.705;  336.715;  222.513
407.975;   67.847; -400.283; -382.490
408.265;  119.513; -134.289; -190.478
408.556;   70.021; -472.291; -459.475
408.846;  174.950;  474.706;  429.530
409.137;   92.347;   -1.288; -216.480
409.427;   62.505; -193.285; -271.487
409.717;   51.031; -776.273; -692.508
410.007;  151.199;    4.715; -170.486
410.298;   94.492; -360.295; -342.469
410.588;   82.253; -495.285; -510.486
410.878;   30.358; -792.287; -873.482
411.168;  116.314; -481.298; -478.463
411.459;  121.967; -295.283; -242.489
411.749;   65.544; -609.292; -507.474
412.039;   62.770; -755.289; -386.480
412.329;  215.315;   40.722;  132.501
412.619;  217.493;  -62.286; -148.485
412.909;  370.466;  639.711;  594.521
413.199;  353.471; -130.280; -251.495
413.490;  428.781;  521.710;  352.523
413.780;  156.175;-1013.279; -913.496
414.070;  333.959;  -46.276;  235.497
414.360;  373.136; -729.278; -666.498
414.650;  431.229; -726.288; -688.482
414.940;  551.224; -538.280; -441.496
415.230;  924.651;   50.712;   74.519
415.520; 6072.212;  155.730;   66.486
415.809;23574.233; -305.281; -125.493
416.099;18344.474; -388.277; -229.501
416.389; 5017.295;  435.726;  236.494
416.679; 2979.575;   91.738;   85.473
416.969;  526.237; -527.287; -503.483
417.259;  575.077;  341.721;  171.503
417.549;  696.456;  522.718;  318.508
417.838; 1595.354; -205.268; -147.518
418.128; 5276.212;  650.710;  492.522
418.418; 4476.488; -491.272; -579.509
418.708; 3021.271;    9.726;  -48.506
418.997;11283.941; -474.275; -480.505
419.287;11788.077; -733.273; -790.507
419.577;11034.941; -160.283; -123.489
419.866;36622.822; -588.277; -498.501
420.156;37828.908; -242.270;  -55.513
420.446; 6925.818; -112.263;  -26.526
420.735;  918.377; -376.271; -446.512
421.025;  856.210; 1830.722;  315.502
421.314;  752.175; -203.271; -226.512
421.604; 1646.922;   89.732;  233.484
421.893;  953.697; -705.271; -602.511
422.183;  228.093; -487.263; -461.526
422.472;  404.648;  -36.271; -107.511
422.762;  456.722; -416.266; -379.521
423.051;  259.909; -916.276; -916.503
423.341;  350.479; -491.273; -439.507
423.630;  435.753; -121.265;   15.477
423.919;  390.166;   58.725;   49.495
424.209;  391.698;  -31.263;   56.473
424.498;  498.852;   68.732;  161.483
424.787; 1078.358; -535.267; -601.518
425.077; 3331.677;   34.735;   29.478
425.366; 4919.704; -734.262; -744.528
425.655; 9724.680;  639.727;  259.493
425.945;20435.583; -313.247; -268.554
426.234;11495.402;  117.741;  300.467
426.523; 4986.882;  -86.259; -350.534
426.812; 6876.193;  107.734;  159.480
427.101; 9958.943; -127.269; -323.515
427.390;12755.337;  -55.270;  -86.514
427.680; 3080.027; -624.257; -411.538
427.969;  504.812; -330.255; -301.540
428.258;  336.618; -385.257; -477.536
428.547;  556.492;  449.728;  397.490
428.836; 1351.479; -421.253; -398.543
429.125; 1995.034; -199.259;  -72.534
429.414;  849.526; -330.251; -294.548
429.703; 3075.526; -231.251; -213.548
429.992; 9124.380; -938.250; -828.549
430.281; 6029.211; -397.264; -331.524
430.570;  600.567;  -21.252;   32.454
430.859;  611.931;  279.741;  352.466
431.148;  457.304;  636.752;  631.446
431.437;  310.916;  391.748;  367.454
431.725;  151.695; -544.257; -481.536
432.014;  127.186; -845.253; -756.545
432.303;  387.105; -149.239; -105.569
432.592;  654.142; -460.263; -178.525
432.881; 1056.855; -601.248; -437.554
433.169; 6001.163; -343.255;  -61.540
433.458;12241.963;  445.765;  540.424
433.747; 5209.535; -397.261; -289.529
434.036;  936.230; -275.242; -280.564
434.324; 2065.242; -395.249; -379.551
434.613; 3577.949;   40.757;  159.437
434.902; 1244.920;  333.760;  439.433
435.190;  657.853;   75.761;  295.431
435.479;  368.956;  -52.245;   83.441
435.767;  113.814; -411.244; -427.561
436.056;  249.576; -340.242; -294.563
436.345;  379.872; -372.240; -223.568
436.633;  402.038;   60.750;  383.450
436.922;  300.349;  208.760;  414.432
437.210;  711.828; -194.236;    1.426
437.499; 2281.386; -583.235; -432.576
437.787; 2537.053; -339.236;  -10.574
438.075;  614.409;   56.761;  162.430
438.364;  829.662;  -44.238;  250.429
438.652;  505.291; -286.226; -138.592
438.941;  167.805;    3.770;  269.415
439.229;   18.864; -665.252; -466.545
439.517;   57.770; -160.234;  -85.577
439.806;    3.707; -501.225; -290.595
440.094;  206.278;  377.766;  650.421
440.382;  201.256; -653.233; -302.580
440.670;  250.461; -361.235; -285.576
440.959;   28.849; -347.223; -170.599
441.247;   86.292; -151.229; -109.587
441.535;  114.318; -266.235;   31.423
441.823;   38.100; -497.234; -305.578
442.111;  182.871;  173.771;  327.412
442.400;  595.680; -628.245; -335.559
442.688; 1619.927; -111.234; -620.579
442.976; 1224.487; -786.213; -450.617
443.264;  126.239; -324.224; -364.597
443.552;  115.817; -258.226;   51.408
443.840;  161.017;  602.765;  876.423
444.128;  120.405;  265.767;  269.420
444.416;   18.149; -694.228; -312.588
444.704;   31.154; -465.219;  -92.605
444.992;   83.370;   -0.226;  240.407
445.280;   56.581; -517.230;  -94.585
445.568;   66.516; -694.212; -396.618
445.856;  392.538; -174.221;  357.398
446.143;  841.725;  -54.220;   -7.604
446.431;  720.727;  -25.228;  625.411
446.719;  265.923;  489.783;  675.391
447.007;  193.900;  481.769;  705.416
447.295;  195.071;  597.777;  871.402
447.583;  101.114; -464.229;  -34.587
447.870;  176.160; -434.221; -202.601
448.158;  471.905; -104.230;  129.415
448.446;  352.751; -800.219; -338.604
448.733;  183.215;   13.776;  269.403
449.021;  271.015;   60.788;  341.382
449.309;  194.205; -296.210;  208.379
449.596;  206.419;  128.783;   59.392
449.884;  178.953; -571.222; -325.600
450.172;  155.233; -756.227; -406.590
450.459;  424.245;  645.786;  780.387
450.747; 2290.743; -411.218; -147.608
451.034; 7320.878;  493.772;  889.411
451.322; 6026.873; -413.214; -170.614
451.609;  512.317;  292.777;  508.403
451.897;  571.568; -550.203; -183.634
452.184; 1752.497; -622.223; -400.598
452.472; 1657.027;   97.792;  269.375
452.759;  368.352;  512.781;  864.395
453.047;  133.438; -407.212; -125.617
453.334;   87.535; -732.219; -216.606
453.621;   84.626; -438.214; -161.615
453.909;  122.935;   13.796;  384.368
454.196;  121.330; -299.199; -123.641
454.483;  219.056;  317.798;  540.364
454.771;  146.130; -215.208;  196.374
455.058;   62.433; -316.207;  102.374
455.345;  117.361;   71.807;  344.347
455.632;   87.386; -128.207;  235.373
455.919;   49.578;  -82.196;  182.354
456.207;  -59.840; -774.198; -450.642
456.494;  -23.332; -475.200;  -66.639
456.781;   -2.748; -399.202; -198.635
457.068;   53.493; -253.206;  -29.628
457.355;    9.069; -698.206; -401.629
457.642;   -0.126; -552.205; -290.630
457.929;   12.052; -778.194; -417.651
458.216;   60.063; -575.212; -354.617
458.503;  241.531; -173.193;  -19.652
458.790;  210.052; -864.208; -630.625
459.077;  269.182;  -77.202;  110.364
459.364;  752.395; -350.195; -210.649
459.651; 1634.566;  -46.206;  220.372
459.938;  793.293; -864.209; -665.623
460.225;  162.235;  132.799;  276.363
460.512;  -51.300; -836.197; -688.645
460.799;  105.792;  -32.218;  320.392
461.086;   83.473; -370.200; -251.640
461.372;   41.860; -509.198; -279.642
461.659;  120.904; -165.196;  108.354
461.946;   65.630; -445.193;  -54.651
462.233;  240.795;  842.800;  888.361
462.519;  341.617; -814.201; -464.639
462.806; 1004.751; -768.197; -497.645
463.093;  864.176; -445.191;  -66.656
463.380;  -29.133; -920.186; -824.664
463.666;   65.902; -259.197;  -18.646
463.953;   82.090; -406.195; -243.648
464.239;  186.714; -173.195;  -77.648
464.526;  409.150;  413.806;  743.350
464.813;  369.612; -565.190; -304.658
465.099;  362.131;  606.807;  607.348
465.386;  358.660;  903.807;  921.348
465.672;   32.051; -694.197; -522.645
465.959;   29.730; -598.188; -520.662
466.245;   14.135; -468.193; -359.652
466.532;  110.962; -109.195;   63.352
466.818;   85.367; -357.186; -216.664
467.104;   -6.143; -488.182; -415.672
467.391;  -23.836; -628.189; -459.658
467.677;   24.570; -289.186;    9.335
467.964;    6.821; -682.189; -471.660
468.250;   77.648; -331.186; -160.665
468.536;   90.790;   90.811;  180.341
468.822;  -23.140; -821.184; -574.668
469.109;  160.937;  351.827;  471.311
469.395;  200.595;  729.808;  787.346
469.681;  210.218;   46.811;  156.341
469.967; 1192.323; -699.188; -382.660
470.254; 2602.206; -494.188; -306.662
470.540; 1713.878; -601.196; -476.646
470.826;  232.193; -488.181; -397.675
471.112;  279.488;  288.816;  113.331
471.398;   98.043; -253.183;  -58.670
471.684;   53.671; -626.177; -447.680
471.970;   -9.428; -918.180; -981.675
472.256;   13.444; -521.192; -441.654
472.542;   20.073; -499.171; -434.691
472.828;   38.678; -743.182; -607.672
473.114;   12.567; -380.166; -283.700
473.400;   25.213; -504.175; -293.684
473.686;   45.148; -452.166; -400.701
473.972;   74.802; -230.174; -131.687
474.258;  -44.088; -925.173; -843.689
474.544;  178.813; -183.178;   -2.679
474.830;  286.214;  -65.175;   45.316
475.116;  470.564; -123.190; -196.658
475.401;  607.649; -558.180; -467.676
475.687;  187.323; -725.180; -718.676
475.973;   17.811; -673.181; -770.673
476.259;  246.916;  736.825;  764.315
476.544;  357.779; -539.176; -437.682
476.830;  770.644; -398.172; -322.690
477.116;  669.003; -430.177; -336.682
477.401;  136.498;  346.820;  358.324
477.687;  -23.287; -289.175; -405.684
477.973;   46.289;   21.819;   28.326
478.258;   -8.282; -448.163; -348.706
478.544;   46.978;   21.815;   61.334
478.829;  -54.046; -818.171; -738.692
479.115;  -42.056; -749.172; -651.690
479.401;  -17.477; -444.174; -449.686
479.686;   26.522; -253.180;  -74.676
479.972;  -28.032; -886.178; -776.680
480.257;   39.468; -258.166;  -65.700
480.542;   -4.667; -614.170; -469.693
480.828;  238.761; 1288.824; 1392.317
481.113;  -33.666; -464.176; -426.683
481.399;    6.967; -236.161; -202.711
481.684;  -49.607; -620.166; -462.700
481.969;   15.131; -158.159;  -73.713
482.255;   -2.957; -439.169; -285.695
482.540;    8.793; -569.178; -441.680
482.825;    5.837; -395.187; -404.663
483.110;   89.647;  -85.169; -105.696
483.396;  162.277; -840.157; -652.718
483.681;  452.652;  543.826;  730.313
483.966;  149.200; -696.160; -700.712
484.251;    8.176; -404.174; -310.687
484.536;   10.278; -356.165; -378.703
484.822;    9.204; -205.173; -218.687
485.107;  -29.860; -599.152; -502.726
485.392;  137.934;  662.836;  541.296
485.677;   82.881;  354.832;  163.302
485.962;  117.450;  160.843;  270.283
486.247;  100.801;  -14.162;   -8.707
486.532;   38.594; -178.166; -325.701
486.817;  166.662;  381.839;  431.291
487.102;  115.098; -453.154; -514.722
487.387;  607.129; -637.156; -652.718
487.672; 1069.789; -154.164;  -38.705
487.957;  700.044; -394.160; -286.711
488.241;  190.357; -290.150; -314.729
488.526;  697.867; -280.152; -148.726
488.811; 1126.620; -881.177; -818.680
489.096;  841.251; -666.154; -702.723
489.381;  474.038;    3.847;  162.275
489.666;  327.192; -428.161; -510.710
489.950;  166.729;  558.846;  627.277
490.235;  -40.648; -480.151; -458.728
490.520;  -45.734; -756.161; -723.710
490.804;  -57.469; -827.156; -736.719
491.089;   -6.502; -469.149; -299.732
491.374;   28.388; -132.164;  -75.704
491.658;    7.634; -817.147; -717.735
491.943;  170.996; -657.152; -609.727
492.227;  281.219; -178.155;  -38.721
492.512;   51.524; -294.157; -341.717
492.797;  -57.383; -713.149; -716.731
493.081;  -59.838; -588.147; -598.735
493.366;  -40.257; -751.161; -635.711
493.650;  207.415;  831.859;  917.254
493.935;   37.984; -648.147; -447.734
494.219;  -34.148; -778.142; -687.743
494.503;  -46.863; -585.150; -487.730
494.788;   49.541;   46.842;   74.285
495.072;  118.883;  184.850;  434.271
495.356;  165.326; -463.148; -343.733
495.641;  468.268; -812.146; -736.736
495.925;  457.261; -976.156; -903.719
496.209;   53.697; -599.149; -451.732
496.494;  -42.447; -763.142; -544.744
496.778;   -2.452; -364.154; -360.722
497.062;  -55.139; -819.156; -627.719
497.346;  -46.754; -869.160; -640.711
497.631;  142.954;  580.852;  560.266
497.915;   77.779;  -64.145;  175.261
498.199;   45.252; -341.157; -277.718
498.483;   36.840; -562.152; -508.725
498.767;  169.709;  301.850;  300.271
499.051;  199.320; -126.149; -100.732
499.335;   17.368; -693.149; -739.731
499.619;  -36.459; -381.129; -423.767
499.903;   36.218; -272.155;  -65.721
500.187;   31.306; -588.153; -316.724
500.471;   20.420; -796.152; -595.727
500.755;  125.516;   62.839;  -96.710
501.039;   12.143; -270.155; -357.721
501.323;   99.292;  -21.141;  264.254
501.607;   26.644; -447.163; -503.706
501.891;    1.929; -607.156; -512.718
502.174;  -29.085; -726.144; -585.741
502.458;   62.824;   89.849;  370.273
502.742;   46.041; -180.138; -191.751
503.026;  107.658; -412.147; -254.734
503.310;  149.430; -437.159; -375.713
503.593;  126.935; -464.147; -325.735
503.877;  128.781; -232.133; -156.760
504.161;  190.108;    2.847;  -50.724
504.444;  145.693; -841.158; -710.716
504.728;  419.662; -487.164; -522.704
505.012;  697.006; -257.150;  -76.729
505.295;  537.067; -417.161; -212.711
505.579;  483.135; -256.156; -496.719
505.862;  702.700; -555.145; -333.738
506.146;  690.607; -681.159; -758.714
506.429;  395.257;  568.841;  461.286
506.713;   59.703; -732.151; -667.728
506.996;  306.923;   90.846;  295.278
507.280;  320.407; -633.165; -474.703
507.563;  222.591; -469.155; -261.721
507.847;   93.956; -423.153; -112.724
508.130;   74.768; -665.161; -456.711
508.413;   90.739; -758.167; -577.700
508.697;  232.139; -151.167;   12.300
508.980;  144.458; -422.153; -312.724
509.263;  -16.812; -466.155; -450.720
509.547;   26.606; -124.150;   82.271
509.830;   42.545; -172.160;  140.289
510.113;   79.385;  128.844;  298.281
510.396;   27.263; -530.152; -300.725
510.680;  192.377; -818.145; -812.738
510.963;  738.077;  184.846;  180.277
511.246;  657.864; -493.150; -357.730
511.529;  276.357; -482.145;  -83.739
511.812;  335.277; -250.134;   10.241
512.095;  250.051; -740.151; -396.728
512.378;   67.989; -317.147; -245.736
512.661;   20.523; -703.137; -623.753
512.944;   17.754; -750.142; -637.744
513.227;   62.345; -170.137; -171.752
513.510;   14.940; -479.144; -671.741
513.793;   32.521; -485.140; -435.747
514.076;  129.112;  -43.127;  -39.771
514.359;  101.448; -294.149; -135.732
514.642;   74.807; -442.142; -567.744
514.925;  716.494;  581.860;  561.253
515.208;  910.349; -498.134; -443.758
515.491;  614.113; -276.133; -182.761
515.773;  358.719; -410.143; -337.742
516.056; 1955.730;  249.864;  409.246
516.339; 2724.908; -754.136; -652.755
516.622; 1996.686; -518.150; -488.730
516.904; 1440.201;  882.857;  975.257
517.187;  671.744; -730.138; -523.752
517.470;  408.925; -568.143; -510.743
517.752;  410.961; -624.136; -470.756
518.035;  311.057; -708.139; -725.749
518.318;  353.984; -799.136; -744.755
518.600; 2243.141; -300.132; -325.762
518.883; 3120.557;  310.858;   88.256
519.165; 1540.462; -585.138; -426.751
519.448;  406.341;  -61.132;  -19.762
519.730;  203.069; -573.126; -415.773
520.013;  342.159;  588.867;  664.240
520.295;  976.154;  -94.134;  -15.759
520.578; 2145.579; -335.131; -305.764
520.860; 2446.641; -254.132;   56.238
521.143; 1224.188; -763.135; -584.756
521.425;  490.582; -251.125; -279.775
521.707;  667.637; -622.127; -380.771
521.990; 1693.688; -199.127;  167.229
522.272; 1900.998; -116.140;   -4.748
522.554;  887.420; -237.143; -157.742
522.836;  396.627;  -24.134;   99.241
523.119;  219.082; -496.148; -189.734
523.401;  156.136; -448.130; -314.766
523.683;   77.124; -865.137; -693.753
523.965;  261.717;  408.862;  260.248
524.247;  263.653;   54.878;  170.220
524.529;  217.004; -451.134; -367.759
524.812;  349.612;   -3.130;  191.234
525.094;  778.841; -773.138; -631.751
525.376; 1291.216; -143.124;   78.223
525.658;  782.231; -441.136; -339.754
525.940;   18.225; -805.131; -671.764
526.222;   37.984; -188.136;  -88.755
526.504;  135.873; -190.131;   32.237
526.786;  224.756; -960.133; -647.760
527.068;  352.747; -124.123;  -67.778
527.349;  163.027; -865.137; -774.754
527.631;  131.241; -137.132;   22.238
527.913;  133.561; -664.127; -450.771
528.195;  142.675; -761.125; -639.774
528.477;  231.499;  -93.134;  -30.758
528.759;  122.337; -648.130; -522.766
529.040;   53.745; -569.123; -293.778
529.322;   45.153; -235.125;  -10.774
529.604;  143.640;  -47.130;   93.233
529.886;  155.819; -546.126; -302.773
530.167;  140.281;  232.870;  192.235
530.449;   54.663;    1.853;   63.265
530.731;   19.602; -572.122; -459.779
531.012;   58.673; -513.120; -216.784
531.294;   84.587; -118.116;  -43.792
531.575;  136.132;  290.875;  538.225
531.857;   42.519; -548.135; -266.757
532.138;   99.240; -113.141;   40.254
532.420;  176.115;  294.865;  403.244
532.701;  249.934; -722.133; -751.760
532.983;  380.562;  232.867;  182.239
533.264;  129.542; -243.126;  175.228
533.546;  -25.616; -491.136; -508.755
533.827;   63.705;  173.867;   -1.759
534.109;   46.294; -352.135;  -80.757
534.390;  111.245; -725.132; -582.762
534.671;  258.665; -270.135;  -82.756
534.953;  125.573; -751.123; -611.779
535.234;   24.747; -426.117; -255.789
535.515;  -94.369; -891.119; -735.785
535.796;  -21.743; -431.128; -193.770
536.078; -124.284;-1050.124; -904.777
536.359;   -2.076;  -22.123;    3.221
536.640;  -20.123; -480.125; -197.774
536.921;  161.895;  225.871;  143.232
537.202;  355.188;  -87.138;  -16.751
537.483;  444.978;  251.869;  377.236
537.764;  151.606;   17.870;   98.235
538.045;  -47.977; -543.134; -371.758
538.326;  -38.253; -596.129; -447.768
538.607;   15.388; -686.127; -476.771
538.888;  155.989;   98.879;    5.218
