
Integration time [ms]: 100.000
Averaging Nr. [scans]: 40
Smoothing Nr. [pixels]: 0
Data measured with spectrometer [name]: 2101013U2
Wave   ;Sample   ;Dark     ;Reference
[nm]   ;[counts] ;[counts] ;[counts] 

394.013;   66.790; -450.257; -315.536
394.305;  209.888; -461.258; -419.536
394.596; 1161.183; -676.269; -527.514
394.887; 2829.375; -796.268; -654.518
395.178; 1077.131;  145.736;   11.476
395.470;   86.292; -210.263; -356.526
395.761;  191.915;  305.734;  394.479
396.052;  307.731; -545.284; -306.489
396.343;  311.252; -557.276; -454.503
396.634;   94.720; -200.279; -290.497
396.926;   97.222; -618.268; -565.517
397.217;  100.482;   11.725;  -17.504
397.508;   52.448; -366.273; -154.507
397.799;   31.245; -555.279; -571.497
398.090;   -7.835; -973.280; -902.495
398.381;   92.230;   11.708;  -11.473
398.672;   -7.293; -585.292; -742.473
398.963;   46.202; -348.279; -373.498
399.254;  102.016;   54.709; -209.475
399.545;  -30.113;-1017.266; -883.520
399.836;   67.966; -407.277; -343.501
400.127;   54.256; -205.295; -209.468
400.418;   62.517; -423.274; -392.506
400.709;   42.177; -359.281; -333.493
401.000;   25.695; -268.291; -309.476
401.290;   99.842;  225.698;  115.545
401.581;   63.114; -166.286; -228.485
401.872;   20.453; -542.298; -486.462
402.163;   38.049; -313.296; -252.467
402.454;   87.291; -123.291; -163.475
402.744;   65.140; -844.297; -813.465
403.035;  395.422; -226.293;  -86.471
403.326;  518.809; -366.292; -384.474
403.617;  367.272;  204.701;  165.539
403.907;  258.912; -593.283; -679.490
404.198; 2501.895; -545.307; -599.446
404.489; 6494.217; -618.283; -588.491
404.779; 2069.171; -618.302; -660.456
405.070;  228.174;  -67.304; -174.451
405.360;  331.423; -259.293; -238.472
405.651;  378.507;  125.699;   98.542
405.942;  163.259;  209.714;  127.516
406.232;  234.124; -432.285; -413.487
406.523;  441.716;  641.706;  758.530
406.813;   73.211; -579.286; -644.484
407.104;  300.754;  261.708;  144.527
407.394;  146.649; -604.299; -591.462
407.685;  148.648;  336.715;  222.513
407.975;   47.916; -400.283; -382.490
408.265;  109.006; -134.289; -190.478
408.556;   51.513; -472.291; -459.475
408.846;  151.567;  474.706;  429.530
409.137;   77.965;   -1.288; -216.480
409.427;   36.074; -193.285; -271.487
409.717;   38.351; -776.273; -692.508
410.007;  131.267;    4.715; -170.486
410.298;   77.534; -360.295; -342.469
410.588;   61.446; -495.285; -510.486
410.878;   48.001; -792.287; -873.482
411.168;  107.880; -481.298; -478.463
411.459;  114.785; -295.283; -242.489
411.749;   73.212; -609.292; -507.474
412.039;   53.263; -755.289; -386.480
412.329;  199.609;   40.722;  132.501
412.619;  196.137;  -62.286; -148.485
412.909;  348.334;  639.711;  594.521
413.199;  324.665; -130.280; -251.495
413.490;  376.924;  521.710;  352.523
413.780;  153.844;-1013.279; -913.496
414.070;  318.178;  -46.276;  235.497
414.360;  378.605; -729.278; -666.498
414.650;  415.222; -726.288; -688.482
414.940;  528.293; -538.280; -441.496
415.230;  961.294;   50.712;   74.519
415.520; 6260.857;  155.730;   66.486
415.809;24890.151; -305.281; -125.493
416.099;19062.943; -388.277; -229.501
416.389; 5427.940;  435.726;  236.494
416.679; 3169.521;   91.738;   85.473
416.969;  549.605; -527.287; -503.483
417.259;  478.721;  341.721;  171.503
417.549;  704.125;  522.718;  318.508
417.838; 1715.000; -205.268; -147.518
418.128; 5776.430;  650.710;  492.522
418.418; 4775.883; -491.272; -579.509
418.708; 3238.740;    9.726;  -48.506
418.997;12240.336; -474.275; -480.505
419.287;12707.147; -733.273; -790.507
419.577;12117.210; -160.283; -123.489
419.866;40108.966; -588.277; -498.501
420.156;40581.128; -242.270;  -55.513
420.446; 7132.538; -112.263;  -26.526
420.735;  845.772; -376.271; -446.512
421.025;  827.779; 1830.722;  315.502
421.314;  642.295; -203.271; -226.512
421.604; 1300.642;   89.732;  233.484
421.893;  742.267; -705.271; -602.511
422.183;  238.639; -487.263; -461.526
422.472;  386.443;  -36.271; -107.511
422.762;  468.918; -416.266; -379.521
423.051;  268.004; -916.276; -916.503
423.341;  287.324; -491.273; -439.507
423.630;  413.774; -121.265;   15.477
423.919;  380.285;   58.725;   49.495
424.209;  368.794;  -31.263;   56.473
424.498;  512.872;   68.732;  161.483
424.787; 1147.303; -535.267; -601.518
425.077; 3451.647;   34.735;   29.478
425.366; 4751.100; -734.262; -744.528
425.655;10420.250;  639.727;  259.493
425.945;23311.706; -313.247; -268.554
426.234;12691.048;  117.741;  300.467
426.523; 5255.703;  -86.259; -350.534
426.812; 7166.339;  107.734;  159.480
427.101;10694.864; -127.269; -323.515
427.390;13382.382;  -55.270;  -86.514
427.680; 2865.898; -624.257; -411.538
427.969;  466.634; -330.255; -301.540
428.258;  310.790; -385.257; -477.536
428.547;  534.712;  449.728;  397.490
428.836; 1188.425; -421.253; -398.543
429.125; 1716.755; -199.259;  -72.534
429.414;  810.648; -330.251; -294.548
429.703; 3241.923; -231.251; -213.548
429.992; 9793.127; -938.250; -828.549
430.281; 6332.831; -397.264; -331.524
430.570;  565.539;  -21.252;   32.454
430.859;  524.628;  279.741;  352.466
431.148;  411.101;  636.752;  631.446
431.437;  289.888;  391.748;  367.454
431.725;  169.341; -544.257; -481.536
432.014;  126.458; -845.253; -756.545
432.303;  375.178; -149.239; -105.569
432.592;  583.938; -460.263; -178.525
432.881; 1071.528; -601.248; -437.554
433.169; 6532.435; -343.255;  -61.540
433.458;13230.112;  445.765;  540.424
433.747; 5417.406; -397.261; -289.529
434.036;  859.579; -275.242; -280.564
434.324; 2147.090; -395.249; -379.551
434.613; 3771.047;   40.757;  159.437
434.902; 1220.018;  333.760;  439.433
435.190;  502.702;   75.761;  295.431
435.479;  274.054;  -52.245;   83.441
435.767;  104.387; -411.244; -427.561
436.056;  203.474; -340.242; -294.563
436.345;  367.620; -372.240; -223.568
436.633;  375.435;   60.750;  383.450
436.922;  242.248;  208.760;  414.432
437.210;  518.377; -194.236;    1.426
437.499; 1628.985; -583.235; -432.576
437.787; 1811.502; -339.236;  -10.574
438.075;  450.833;   56.761;  162.430
438.364;  628.335;  -44.238;  250.429
438.652;  366.766; -286.226; -138.592
438.941;  128.605;    3.770;  269.415
439.229;    4.786; -665.252; -466.545
439.517;   35.169; -160.234;  -85.577
439.806;  -24.568; -501.225; -290.595
440.094;  154.627;  377.766;  650.421
440.382;  180.555; -653.233; -302.580
440.670;  173.860; -361.235; -285.576
440.959;   12.900; -347.223; -170.599
441.247;   68.691; -151.229; -109.587
441.535;   76.742; -266.235;   31.423
441.823;   24.599; -497.234; -305.578
442.111;  172.671;  173.771;  327.412
442.400;  458.728; -628.245; -335.559
442.688; 1235.551; -111.234; -620.579
442.976;  848.613; -786.213; -450.617
443.264;   95.464; -324.224; -364.597
443.552;   83.317; -258.226;   51.408
443.840;  163.641;  602.765;  876.423
444.128;   98.105;  265.767;  269.420
444.416;   -5.202; -694.228; -312.588
444.704;   16.780; -465.219;  -92.605
444.992;   64.520;   -0.226;  240.407
445.280;   40.355; -517.230;  -94.585
445.568;   30.542; -694.212; -396.618
445.856;  314.564; -174.221;  357.398
446.143;  693.476;  -54.220;   -7.604
446.431;  550.852;  -25.228;  625.411
446.719;  228.549;  489.783;  675.391
447.007;  178.975;  481.769;  705.416
447.295;  164.947;  597.777;  871.402
447.583;   79.114; -464.229;  -34.587
447.870;  129.810; -434.221; -202.601
448.158;  372.204; -104.230;  129.415
448.446;  278.177; -800.219; -338.604
448.733;  158.090;   13.776;  269.403
449.021;  231.817;   60.788;  341.382
449.309;  167.682; -296.210;  208.379
449.596;  208.970;  128.783;   59.392
449.884;  148.029; -571.222; -325.600
450.172;  163.957; -756.227; -406.590
450.459;  455.172;  645.786;  780.387
450.747; 2525.619; -411.218; -147.608
451.034; 8075.178;  493.772;  889.411
451.322; 6618.800; -413.214; -170.614
451.609;  532.692;  292.777;  508.403
451.897;  627.746; -550.203; -183.634
452.184; 1893.472; -622.223; -400.598
452.472; 1786.378;   97.792;  269.375
452.759;  329.153;  512.781;  864.395
453.047;  112.714; -407.212; -125.617
453.334;   52.560; -732.219; -216.606
453.621;   66.802; -438.214; -161.615
453.909;  102.862;   13.796;  384.368
454.196;   97.433; -299.199; -123.641
454.483;  195.134;  317.798;  540.364
454.771;  126.582; -215.208;  196.374
455.058;   33.110; -316.207;  102.374
455.345;  109.889;   71.807;  344.347
455.632;   99.938; -128.207;  235.373
455.919;   47.381;  -82.196;  182.354
456.207;  -50.362; -774.198; -450.642
456.494;  -12.554; -475.200;  -66.639
456.781;    2.329; -399.202; -198.635
457.068;   54.670; -253.206;  -29.628
457.355;  -10.104; -698.206; -401.629
457.642;   -8.199; -552.205; -290.630
457.929;   -6.445; -778.194; -417.651
458.216;   52.765; -575.212; -354.617
458.503;  227.485; -173.193;  -19.652
458.790;  244.704; -864.208; -630.625
459.077;  268.509;  -77.202;  110.364
459.364;  825.423; -350.195; -210.649
459.651; 1780.293;  -46.206;  220.372
459.938;  817.545; -864.209; -665.623
460.225;  138.838;  132.799;  276.363
460.512;  -51.697; -836.197; -688.645
460.799;   94.643;  -32.218;  320.392
461.086;   68.276; -370.200; -251.640
461.372;   28.888; -509.198; -279.642
461.659;   94.982; -165.196;  108.354
461.946;   48.433; -445.193;  -54.651
462.233;  228.648;  842.800;  888.361
462.519;  362.020; -814.201; -464.639
462.806; 1052.254; -768.197; -497.645
463.093;  909.204; -445.191;  -66.656
463.380;  -25.004; -920.186; -824.664
463.666;   53.906; -259.197;  -18.646
463.953;   98.418; -406.195; -243.648
464.239;  194.293; -173.195;  -77.648
464.526;  380.404;  413.806;  743.350
464.813;  339.191; -565.190; -304.658
465.099;  349.610;  606.807;  607.348
465.386;  303.588;  903.807;  921.348
465.672;   15.754; -694.197; -522.645
465.959;   17.759; -598.188; -520.662
466.245;   13.989; -468.193; -359.652
466.532;   96.341; -109.195;   63.352
466.818;   51.421; -357.186; -216.664
467.104;    2.612; -488.182; -415.672
467.391;  -28.907; -628.189; -459.658
467.677;   27.200; -289.186;    9.335
467.964;    0.475; -682.189; -471.660
468.250;   44.502; -331.186; -160.665
468.536;   75.344;   90.811;  180.341
468.822;  -36.911; -821.184; -574.668
469.109;  146.168;  351.827;  471.311
469.395;  177.673;  729.808;  787.346
469.681;  196.972;   46.811;  156.341
469.967; 1300.677; -699.188; -382.660
470.254; 2826.085; -494.188; -306.662
470.540; 1786.381; -601.196; -476.646
470.826;  251.073; -488.181; -397.675
471.112;  311.943;  288.816;  113.331
471.398;   74.672; -253.183;  -58.670
471.684;   38.001; -626.177; -447.680
471.970;   -5.023; -918.180; -981.675
472.256;   11.897; -521.192; -441.654
472.542;    9.879; -499.171; -434.691
472.828;   11.657; -743.182; -607.672
473.114;   13.173; -380.166; -283.700
473.400;    0.768; -504.175; -293.684
473.686;   34.180; -452.166; -400.701
473.972;   43.333; -230.174; -131.687
474.258;  -50.207; -925.173; -843.689
474.544;  209.093; -183.178;   -2.679
474.830;  342.970;  -65.175;   45.316
475.116;  530.693; -123.190; -196.658
475.401;  715.254; -558.180; -467.676
475.687;  201.603; -725.180; -718.676
475.973;    8.766; -673.181; -770.673
476.259;  233.797;  736.825;  764.315
476.544;  365.659; -539.176; -437.682
476.830;  888.850; -398.172; -322.690
477.116;  788.008; -430.177; -336.682
477.401;  135.228;  346.820;  358.324
477.687;  -16.232; -289.175; -405.684
477.973;   50.644;   21.819;   28.326
478.258;  -16.750; -448.163; -348.706
478.544;   47.708;   21.815;   61.334
478.829;  -51.540; -818.171; -738.692
479.115;  -55.425; -749.172; -651.690
479.401;  -25.747; -444.174; -449.686
479.686;   17.277; -253.180;  -74.676
479.972;  -32.452; -886.178; -776.680
480.257;   41.750; -258.166;  -65.700
480.542;    1.839; -614.170; -469.693
480.828;  210.266; 1288.824; 1392.317
481.113;  -37.961; -464.176; -426.683
481.399;   -8.326; -236.161; -202.711
481.684;  -63.201; -620.166; -462.700
481.969;   10.063; -158.159;  -73.713
482.255;  -16.650; -439.169; -285.695
482.540;   -1.626; -569.178; -441.680
482.825;    7.966; -395.187; -404.663
483.110;   99.303;  -85.169; -105.696
483.396;  218.835; -840.157; -652.718
483.681;  511.808;  543.826;  730.313
483.966;  185.182; -696.160; -700.712
484.251;    1.282; -404.174; -310.687
484.536;   -5.690; -356.165; -378.703
484.822;    0.485; -205.173; -218.687
485.107;  -30.277; -599.152; -502.726
485.392;  128.141;  662.836;  541.296
485.677;   80.763;  354.832;  163.302
485.962;   80.607;  160.843;  270.283
486.247;   82.633;  -14.162;   -8.707
486.532;   42.201; -178.166; -325.701
486.817;  157.394;  381.839;  431.291
487.102;  116.431; -453.154; -514.722
487.387;  709.787; -637.156; -652.718
487.672; 1287.146; -154.164;  -38.705
487.957;  790.926; -394.160; -286.711
488.241;  207.690; -290.150; -314.729
488.526;  789.950; -280.152; -148.726
488.811; 1284.100; -881.177; -818.680
489.096;  943.884; -666.154; -702.723
489.381;  521.996;    3.847;  162.275
489.666;  408.049; -428.161; -510.710
489.950;  163.612;  558.846;  627.277
490.235;  -35.090; -480.151; -458.728
490.520;  -48.627; -756.161; -723.710
490.804;  -54.211; -827.156; -736.719
491.089;    3.706; -469.149; -299.732
491.374;   26.795; -132.164;  -75.704
491.658;   -9.182; -817.147; -717.735
491.943;  148.529; -657.152; -609.727
492.227;  226.052; -178.155;  -38.721
492.512;   53.932; -294.157; -341.717
492.797;  -69.900; -713.149; -716.731
493.081;  -47.779; -588.147; -598.735
493.366;  -41.900; -751.161; -635.711
493.650;  203.249;  831.859;  917.254
493.935;   33.967; -648.147; -447.734
494.219;  -39.714; -778.142; -687.743
494.503;  -58.480; -585.150; -487.730
494.788;   40.948;   46.842;   74.285
495.072;  103.542;  184.850;  434.271
495.356;  184.559; -463.148; -343.733
495.641;  480.252; -812.146; -736.736
495.925;  440.819; -976.156; -903.719
496.209;   26.806; -599.149; -451.732
496.494;  -40.113; -763.142; -544.744
496.778;    5.506; -364.154; -360.722
497.062;  -50.782; -819.156; -627.719
497.346;  -35.147; -869.160; -640.711
497.631;  137.088;  580.852;  560.266
497.915;   74.813;  -64.145;  175.261
498.199;   53.410; -341.157; -277.718
498.483;   34.473; -562.152; -508.725
498.767;  183.068;  301.850;  300.271
499.051;  186.978; -126.149; -100.732
499.335;   28.476; -693.149; -739.731
499.619;  -37.248; -381.129; -423.767
499.903;   15.151; -272.155;  -65.721
500.187;   37.588; -588.153; -316.724
500.471;   23.378; -796.152; -595.727
500.755;   99.223;   62.839;  -96.710
501.039;   18.801; -270.155; -357.721
501.323;   83.276;  -21.141;  264.254
501.607;   26.626; -447.163; -503.706
501.891;   -3.589; -607.156; -512.718
502.174;  -49.251; -726.144; -585.741
502.458;   61.257;   89.849;  370.273
502.742;   59.125; -180.138; -191.751
503.026;  111.217; -412.147; -254.734
503.310;  190.862; -437.159; -375.713
503.593;  113.768; -464.147; -325.735
503.877;  123.241; -232.133; -156.760
504.161;  178.341;    2.847;  -50.724
504.444;  126.376; -841.158; -710.716
504.728;  493.769; -487.164; -522.704
505.012;  747.115; -257.150;  -76.729
505.295;  563.674; -417.161; -212.711
505.579;  580.693; -256.156; -496.719
505.862;  783.359; -555.145; -333.738
506.146;  804.414; -681.159; -758.714
506.429;  421.240;  568.841;  461.286
506.713;   61.737; -732.151; -667.728
506.996;  327.806;   90.846;  295.278
507.280;  371.414; -633.165; -474.703
507.563;  262.624; -469.155; -261.721
507.847;  113.064; -423.153; -112.724
508.130;  102.050; -665.161; -456.711
508.413;  120.970; -758.167; -577.700
508.697;  256.796; -151.167;   12.300
508.980;  171.841; -422.153; -312.724
509.263;    6.771; -466.155; -450.720
509.547;   47.239; -124.150;   82.271
509.830;   36.752; -172.160;  140.289
510.113;   82.568;  128.844;  298.281
510.396;   33.221; -530.152; -300.725
510.680;  134.961; -818.145; -812.738
510.963;  525.285;  184.846;  180.277
511.246;  447.722; -493.150; -357.730
511.529;  245.141; -482.145;  -83.739
511.812;  408.812; -250.134;   10.241
512.095;  287.109; -740.151; -396.728
512.378;   75.573; -317.147; -245.736
512.661;   34.058; -703.137; -623.753
512.944;   41.913; -750.142; -637.744
513.227;   60.330; -170.137; -171.752
513.510;   29.499; -479.144; -671.741
513.793;   32.430; -485.140; -435.747
514.076;  119.223;  -43.127;  -39.771
514.359;   95.382; -294.149; -135.732
514.642;  105.591; -442.142; -567.744
514.925;  799.454;  581.860;  561.253
515.208; 1091.734; -498.134; -443.758
515.491;  704.923; -276.133; -182.761
515.773;  386.078; -410.143; -337.742
516.056; 2216.414;  249.864;  409.246
516.339; 2975.543; -754.136; -652.755
516.622; 1921.720; -518.150; -488.730
516.904; 1118.160;  882.857;  975.257
517.187;  505.779; -730.138; -523.752
517.470;  389.609; -568.143; -510.743
517.752;  441.621; -624.136; -470.756
518.035;  366.966; -708.139; -725.749
518.318;  394.143; -799.136; -744.755
518.600; 2623.026; -300.132; -325.762
518.883; 3614.516;  310.858;   88.256
519.165; 1731.896; -585.138; -426.751
519.448;  377.101;  -61.132;  -19.762
519.730;  204.430; -573.126; -415.773
520.013;  295.519;  588.867;  664.240
520.295;  744.064;  -94.134;  -15.759
520.578; 1719.964; -335.131; -305.764
520.860; 1915.101; -254.132;   56.238
521.143; 1021.198; -763.135; -584.756
521.425;  498.318; -251.125; -279.775
521.707;  712.223; -622.127; -380.771
521.990; 1928.123; -199.127;  167.229
522.272; 2172.957; -116.140;   -4.748
522.554;  929.329; -237.143; -157.742
522.836;  329.062;  -24.134;   99.241
523.119;  212.540; -496.148; -189.734
523.401;  159.496; -448.130; -314.766
523.683;  108.408; -865.137; -693.753
523.965;  283.677;  408.862;  260.248
524.247;  292.965;   54.878;  170.220
524.529;  215.939; -451.134; -367.759
524.812;  362.873;   -3.130;  191.234
525.094;  909.501; -773.138; -631.751
525.376; 1474.427; -143.124;   78.223
525.658;  879.616; -441.136; -339.754
525.940;   31.761; -805.131; -671.764
526.222;   30.919; -188.136;  -88.755
526.504;  115.359; -190.131;   32.237
526.786;  170.742; -960.133; -647.760
527.068;  292.183; -124.123;  -67.778
527.349;  107.687; -865.137; -774.754
527.631;  137.376; -137.132;   22.238
527.913;  134.147; -664.127; -450.771
528.195;  196.436; -761.125; -639.774
528.477;  267.384;  -93.134;  -30.758
528.759;  150.498; -648.130; -522.766
529.040;   72.607; -569.123; -293.778
529.322;   43.789; -235.125;  -10.774
529.604;  133.700;  -47.130;   93.233
529.886;  127.855; -546.126; -302.773
530.167;  114.642;  232.870;  192.235
530.449;   39.547;    1.853;   63.265
530.731;   26.614; -572.122; -459.779
531.012;   77.310; -513.120; -216.784
531.294;   79.749; -118.116;  -43.792
531.575;  163.893;  290.875;  538.225
531.857;   65.204; -548.135; -266.757
532.138;  106.450; -113.141;   40.254
532.420;  161.450;  294.865;  403.244
532.701;  207.619; -722.133; -751.760
532.983;  329.772;  232.867;  182.239
533.264;  107.878; -243.126;  175.228
533.546;  -40.431; -491.136; -508.755
533.827;   32.641;  173.867;   -1.759
534.109;   35.254; -352.135;  -80.757
534.390;   85.980; -725.132; -582.762
534.671;  247.825; -270.135;  -82.756
534.953;  154.784; -751.123; -611.779
535.234;   27.559; -426.117; -255.789
535.515;  -73.782; -891.119; -735.785
535.796;  -15.882; -431.128; -193.770
536.078; -107.573;-1050.124; -904.777
536.359;  -12.340;  -22.123;    3.221
536.640;   -6.612; -480.125; -197.774
536.921;  165.981;  225.871;  143.232
537.202;  385.898;  -87.138;  -16.751
537.483;  485.114;  251.869;  377.236
537.764;  192.142;   17.870;   98.235
538.045;  -56.217; -543.134; -371.758
538.326;  -33.368; -596.129; -447.768
538.607;   30.174; -686.127; -476.771
538.888;  176.726;   98.879;    5.218
