
Integration time [ms]: 200.000
Averaging Nr. [scans]: 10
Smoothing Nr. [pixels]: 0
Data measured with spectrometer [name]: 2101013U2
Wave   ;Sample   ;Dark     ;Reference
[nm]   ;[counts] ;[counts] ;[counts] 

394.013;   11.158; -450.257; -315.536
394.305;   55.157; -461.258; -419.536
394.596;  500.977; -676.269; -527.514
394.887; 1287.490; -796.268; -654.518
395.178;  587.814;  145.736;   11.476
395.470;   31.822; -210.263; -356.526
395.761;  236.901;  305.734;  394.479
396.052;  109.580; -545.284; -306.489
396.343;   83.534; -557.276; -454.503
396.634;   56.610; -200.279; -290.497
396.926;  -23.412; -618.268; -565.517
397.217;  119.638;   11.725;  -17.504
397.508;  -23.250; -366.273; -154.507
397.799;  -54.690; -555.279; -571.497
398.090; -179.194; -973.280; -902.495
398.381;   64.822;   11.708;  -11.473
398.672; -120.677; -585.292; -742.473
398.963;    0.815; -348.279; -373.498
399.254;   67.730;   54.709; -209.475
399.545; -194.901;-1017.266; -883.520
399.836;  -31.774; -407.277; -343.501
400.127;   37.004; -205.295; -209.468
400.418;    9.346; -423.274; -392.506
400.709;   -1.704; -359.281; -333.493
401.000;   10.433; -268.291; -309.476
401.290;  149.355;  225.698;  115.545
401.581;   38.667; -166.286; -228.485
401.872;  -43.417; -542.298; -486.462
402.163;   46.098; -313.296; -252.467
402.454;   95.731; -123.291; -163.475
402.744;  -61.308; -844.297; -813.465
403.035;  255.016; -226.293;  -86.471
403.326;  294.426; -366.292; -384.474
403.617;  360.678;  204.701;  165.539
403.907;   89.485; -593.283; -679.490
404.198; 1253.120; -545.307; -599.446
404.489; 3238.589; -618.283; -588.491
404.779; 1078.958; -618.302; -660.456
405.070;  198.741;  -67.304; -174.451
405.360;  220.417; -259.293; -238.472
405.651;  293.566;  125.699;   98.542
405.942;  128.463;  209.714;  127.516
406.232;   67.775; -432.285; -413.487
406.523;  486.712;  641.706;  758.530
406.813;   -7.535; -579.286; -644.484
407.104;  333.522;  261.708;  144.527
407.394;   26.279; -604.299; -591.462
407.685;  167.874;  336.715;  222.513
407.975;   25.987; -400.283; -382.490
408.265;  122.442; -134.289; -190.478
408.556;   -7.972; -472.291; -459.475
408.846;  280.512;  474.706;  429.530
409.137;   86.048;   -1.288; -216.480
409.427;   33.374; -193.285; -271.487
409.717;  -68.847; -776.273; -692.508
410.007;  150.869;    4.715; -170.486
410.298;   68.706; -360.295; -342.469
410.588;   39.872; -495.285; -510.486
410.878; -103.243; -792.287; -873.482
411.168;   30.784; -481.298; -478.463
411.459;   39.983; -295.283; -242.489
411.749;  -39.073; -609.292; -507.474
412.039;  -96.853; -755.289; -386.480
412.329;  186.120;   40.722;  132.501
412.619;   99.865;  -62.286; -148.485
412.909;  359.944;  639.711;  594.521
413.199;  165.006; -130.280; -251.495
413.490;  344.237;  521.710;  352.523
413.780;  -78.791;-1013.279; -913.496
414.070;  250.735;  -46.276;  235.497
414.360;   97.017; -729.278; -666.498
414.650;  123.754; -726.288; -688.482
414.940;  230.009; -538.280; -441.496
415.230;  567.052;   50.712;   74.519
415.520; 3553.676;  155.730;   66.486
415.809;13162.196; -305.281; -125.493
416.099;10463.128; -388.277; -229.501
416.389; 3053.144;  435.726;  236.494
416.679; 1853.925;   91.738;   85.473
416.969;  293.061; -527.287; -503.483
417.259;  447.710;  341.721;  171.503
417.549;  532.995;  522.718;  318.508
417.838;  925.790; -205.268; -147.518
418.128; 3060.041;  650.710;  492.522
418.418; 2387.157; -491.272; -579.509
418.708; 1796.844;    9.726;  -48.506
418.997; 6171.141; -474.275; -480.505
419.287; 6384.149; -733.273; -790.507
419.577; 6265.283; -160.283; -123.489
419.866;20107.726; -588.277; -498.501
420.156;21237.673; -242.270;  -55.513
420.446; 4209.719; -112.263;  -26.526
420.735;  503.369; -376.271; -446.512
421.025;  976.917; 1830.722;  315.502
421.314;  496.567; -203.271; -226.512
421.604; 1105.484;   89.732;  233.484
421.893;  495.464; -705.271; -602.511
422.183;  102.019; -487.263; -461.526
422.472;  264.666;  -36.271; -107.511
422.762;  250.303; -416.266; -379.521
423.051;   36.035; -916.276; -916.503
423.341;  157.351; -491.273; -439.507
423.630;  263.708; -121.265;   15.477
423.919;  284.540;   58.725;   49.495
424.209;  245.724;  -31.263;   56.473
424.498;  331.988;   68.732;  161.483
424.787;  570.193; -535.267; -601.518
425.077; 1870.907;   34.735;   29.478
425.366; 2480.528; -734.262; -744.528
425.655; 5510.951;  639.727;  259.493
425.945;10719.128; -313.247; -268.554
426.234; 6366.445;  117.741;  300.467
426.523; 2708.849;  -86.259; -350.534
426.812; 3941.900;  107.734;  159.480
427.101; 5809.881; -127.269; -323.515
427.390; 7245.276;  -55.270;  -86.514
427.680; 1666.865; -624.257; -411.538
427.969;  352.373; -330.255; -301.540
428.258;  177.058; -385.257; -477.536
428.547;  484.161;  449.728;  397.490
428.836;  718.985; -421.253; -398.543
429.125; 1065.651; -199.259;  -72.534
429.414;  490.703; -330.251; -294.548
429.703; 1814.803; -231.251; -213.548
429.992; 4958.806; -938.250; -828.549
430.281; 3433.514; -397.264; -331.524
430.570;  471.496;  -21.252;   32.454
430.859;  605.349;  279.741;  352.466
431.148;  567.624;  636.752;  631.446
431.437;  405.695;  391.748;  367.454
431.725;   42.459; -544.257; -481.536
432.014;  -44.509; -845.253; -756.545
432.303;  239.383; -149.239; -105.569
432.592;  325.519; -460.263; -178.525
432.881;  539.025; -601.248; -437.554
433.169; 3399.974; -343.255;  -61.540
433.458; 6592.009;  445.765;  540.424
433.747; 2864.332; -397.261; -289.529
434.036;  512.764; -275.242; -280.564
434.324; 1140.115; -395.249; -379.551
434.613; 2017.159;   40.757;  159.437
434.902;  828.375;  333.760;  439.433
435.190;  406.682;   75.761;  295.431
435.479;  257.545;  -52.245;   83.441
435.767;   58.051; -411.244; -427.561
436.056;  154.761; -340.242; -294.563
436.345;  191.777; -372.240; -223.568
436.633;  357.212;   60.750;  383.450
436.922;  292.179;  208.760;  414.432
437.210;  458.801; -194.236;    1.426
437.499; 1251.907; -583.235; -432.576
437.787; 1481.401; -339.236;  -10.574
438.075;  398.186;   56.761;  162.430
438.364;  475.888;  -44.238;  250.429
438.652;  252.769; -286.226; -138.592
438.941;  157.941;    3.770;  269.415
439.229;  -49.507; -665.252; -466.545
439.517;   61.714; -160.234;  -85.577
439.806;  -54.319; -501.225; -290.595
440.094;  245.020;  377.766;  650.421
440.382;   59.223; -653.233; -302.580
440.670;  101.807; -361.235; -285.576
440.959;  -25.706; -347.223; -170.599
441.247;   65.650; -151.229; -109.587
441.535;   75.413; -266.235;   31.423
441.823;  -21.782; -497.234; -305.578
442.111;  188.453;  173.771;  327.412
442.400;  294.445; -628.245; -335.559
442.688;  931.519; -111.234; -620.579
442.976;  580.362; -786.213; -450.617
443.264;   36.186; -324.224; -364.597
443.552;   52.470; -258.226;   51.408
443.840;  224.511;  602.765;  876.423
444.128;  164.022;  265.767;  269.420
444.416;  -85.845; -694.228; -312.588
444.704;  -32.283; -465.219;  -92.605
444.992;   52.872;   -0.226;  240.407
445.280;    0.742; -517.230;  -94.585
445.568;  -65.835; -694.212; -396.618
445.856;  235.105; -174.221;  357.398
446.143;  419.714;  -54.220;   -7.604
446.431;  514.058;  -25.228;  625.411
446.719;  270.532;  489.783;  675.391
447.007;  252.437;  481.769;  705.416
447.295;  222.792;  597.777;  871.402
447.583;  -10.352; -464.229;  -34.587
447.870;   16.403; -434.221; -202.601
448.158;  330.641; -104.230;  129.415
448.446;  138.215; -800.219; -338.604
448.733;  131.387;   13.776;  269.403
449.021;  225.965;   60.788;  341.382
449.309;  166.776; -296.210;  208.379
449.596;  230.829;  128.783;   59.392
449.884;   64.798; -571.222; -325.600
450.172;    3.262; -756.227; -406.590
450.459;  410.449;  645.786;  780.387
450.747; 1266.128; -411.218; -147.608
451.034; 4106.159;  493.772;  889.411
451.322; 3262.252; -413.214; -170.614
451.609;  375.088;  292.777;  508.403
451.897;  278.925; -550.203; -183.634
452.184;  922.492; -622.223; -400.598
452.472; 1019.793;   97.792;  269.375
452.759;  384.716;  512.781;  864.395
453.047;   33.263; -407.212; -125.617
453.334;   -1.278; -732.219; -216.606
453.621;    0.953; -438.214; -161.615
453.909;  155.419;   13.796;  384.368
454.196;  103.254; -299.199; -123.641
454.483;  252.735;  317.798;  540.364
454.771;  117.595; -215.208;  196.374
455.058;   61.398; -316.207;  102.374
455.345;  140.996;   71.807;  344.347
455.632;  145.900; -128.207;  235.373
455.919;   88.971;  -82.196;  182.354
456.207; -117.043; -774.198; -450.642
456.494;  -31.256; -475.200;  -66.639
456.781;   11.031; -399.202; -198.635
457.068;   93.805; -253.206;  -29.628
457.355;  -37.894; -698.206; -401.629
457.642;  -26.090; -552.205; -290.630
457.929;  -50.111; -778.194; -417.651
458.216;  -10.137; -575.212; -354.617
458.503;  226.393; -173.193;  -19.652
458.790;   54.693; -864.208; -630.625
459.077;  183.535;  -77.202;  110.364
459.364;  429.884; -350.195; -210.649
459.651;  997.403;  -46.206;  220.372
459.938;  326.486; -864.209; -665.623
460.225;  153.738;  132.799;  276.363
460.512; -151.831; -836.197; -688.645
460.799;  156.027;  -32.218;  320.392
461.086;   17.748; -370.200; -251.640
461.372;   -6.543; -509.198; -279.642
461.659;   88.372; -165.196;  108.354
461.946;   36.992; -445.193;  -54.651
462.233;  333.246;  842.800;  888.361
462.519;   81.043; -814.201; -464.639
462.806;  408.169; -768.197; -497.645
463.093;  473.608; -445.191;  -66.656
463.380; -185.461; -920.186; -824.664
463.666;   40.071; -259.197;  -18.646
463.953;   41.880; -406.195; -243.648
464.239;  144.880; -173.195;  -77.648
464.526;  390.388;  413.806;  743.350
464.813;  179.317; -565.190; -304.658
465.099;  316.493;  606.807;  607.348
465.386;  411.496;  903.807;  921.348
465.672;  -80.531; -694.197; -522.645
465.959;  -42.570; -598.188; -520.662
466.245;  -13.004; -468.193; -359.652
466.532;  132.378; -109.195;   63.352
466.818;   45.939; -357.186; -216.664
467.104;  -30.430; -488.182; -415.672
467.391;  -65.182; -628.189; -459.658
467.677;   63.442; -289.186;    9.335
467.964;  -36.577; -682.189; -471.660
468.250;   70.144; -331.186; -160.665
468.536;  152.619;   90.811;  180.341
468.822;  -92.147; -821.184; -574.668
469.109;  257.932;  351.827;  471.311
469.395;  353.603;  729.808;  787.346
469.681;  200.021;   46.811;  156.341
469.967;  650.225; -699.188; -382.660
470.254; 1396.731; -494.188; -306.662
470.540;  916.671; -601.196; -476.646
470.826;  119.779; -488.181; -397.675
471.112;  298.356;  288.816;  113.331
471.398;  108.660; -253.183;  -58.670
471.684;   11.301; -626.177; -447.680
471.970; -121.318; -918.180; -981.675
472.256;   26.002; -521.192; -441.654
472.542;  -12.359; -499.171; -434.691
472.828;  -38.133; -743.182; -607.672
473.114;   -5.526; -380.166; -283.700
473.400;   33.113; -504.175; -293.684
473.686;   38.379; -452.166; -400.701
473.972;   78.725; -230.174; -131.687
474.258; -137.967; -925.173; -843.689
474.544;  199.494; -183.178;   -2.679
474.830;  266.315;  -65.175;   45.316
475.116;  385.118; -123.190; -196.658
475.401;  417.384; -558.180; -467.676
475.687;   78.783; -725.180; -718.676
475.973;  -85.527; -673.181; -770.673
476.259;  369.416;  736.825;  764.315
476.544;  246.807; -539.176; -437.682
476.830;  605.938; -398.172; -322.690
477.116;  567.406; -430.177; -336.682
477.401;  239.583;  346.820;  358.324
477.687;   -3.587; -289.175; -405.684
477.973;  102.876;   21.819;   28.326
478.258;  -44.905; -448.163; -348.706
478.544;   86.348;   21.815;   61.334
478.829; -110.955; -818.171; -738.692
479.115;  -88.162; -749.172; -651.690
479.401;  -33.179; -444.174; -449.686
479.686;   42.082; -253.180;  -74.676
479.972; -112.902; -886.178; -776.680
480.257;   51.376; -258.166;  -65.700
480.542;  -27.752; -614.170; -469.693
480.828;  492.012; 1288.824; 1392.317
481.113;  -70.290; -464.176; -426.683
481.399;   16.313; -236.161; -202.711
481.684;  -60.525; -620.166; -462.700
481.969;   81.824; -158.159;  -73.713
482.255;   15.456; -439.169; -285.695
482.540;   14.998; -569.178; -441.680
482.825;    7.636; -395.187; -404.663
483.110;  138.659;  -85.169; -105.696
483.396;  100.240; -840.157; -652.718
483.681;  566.825;  543.826;  730.313
483.966;   11.719; -696.160; -700.712
484.251;  -11.076; -404.174; -310.687
484.536;  -10.617; -356.165; -378.703
484.822;   19.026; -205.173; -218.687
485.107;  -60.630; -599.152; -502.726
485.392;  294.488;  662.836;  541.296
485.677;  163.367;  354.832;  163.302
485.962;  213.839;  160.843;  270.283
486.247;  129.101;  -14.162;   -8.707
486.532;   65.176; -178.166; -325.701
486.817;  212.909;  381.839;  431.291
487.102;   24.257; -453.154; -514.722
487.387;  384.242; -637.156; -652.718
487.672;  770.692; -154.164;  -38.705
487.957;  481.015; -394.160; -286.711
488.241;  203.783; -290.150; -314.729
488.526;  545.271; -280.152; -148.726
488.811;  640.600; -881.177; -818.680
489.096;  479.859; -666.154; -702.723
489.381;  369.568;    3.847;  162.275
489.666;  189.113; -428.161; -510.710
489.950;  328.061;  558.846;  627.277
490.235;  -66.321; -480.151; -458.728
490.520;  -88.088; -756.161; -723.710
490.804; -131.857; -827.156; -736.719
491.089;  -35.005; -469.149; -299.732
491.374;   50.291; -132.164;  -75.704
491.658;  -99.296; -817.147; -717.735
491.943;   48.174; -657.152; -609.727
492.227;  165.054; -178.155;  -38.721
492.512;    6.038; -294.157; -341.717
492.797; -109.610; -713.149; -716.731
493.081; -113.794; -588.147; -598.735
493.366; -118.586; -751.161; -635.711
493.650;  330.147;  831.859;  917.254
493.935;   -5.197; -648.147; -447.734
494.219; -126.663; -778.142; -687.743
494.503; -125.914; -585.150; -487.730
494.788;   83.132;   46.842;   74.285
495.072;  192.484;  184.850;  434.271
495.356;   69.397; -463.148; -343.733
495.641;  241.711; -812.146; -736.736
495.925;  133.247; -976.156; -903.719
496.209;   -7.806; -599.149; -451.732
496.494; -127.363; -763.142; -544.744
496.778;   13.157; -364.154; -360.722
497.062; -139.053; -819.156; -627.719
497.346; -106.384; -869.160; -640.711
497.631;  226.900;  580.852;  560.266
497.915;  121.919;  -64.145;  175.261
498.199;  -26.560; -341.157; -277.718
498.483;   -9.530; -562.152; -508.725
498.767;  233.085;  301.850;  300.271
499.051;  215.593; -126.149; -100.732
499.335;  -67.009; -693.149; -739.731
499.619;  -52.675; -381.129; -423.767
499.903;   55.953; -272.155;  -65.721
500.187;   -9.238; -588.153; -316.724
500.471; -126.126; -796.152; -595.727
500.755;   90.713;   62.839;  -96.710
501.039;  -29.547; -270.155; -357.721
501.323;  107.448;  -21.141;  264.254
501.607;  -42.105; -447.163; -503.706
501.891;  -62.958; -607.156; -512.718
502.174; -114.872; -726.144; -585.741
502.458;  124.177;   89.849;  370.273
502.742;    9.867; -180.138; -191.751
503.026;   65.503; -412.147; -254.734
503.310;   89.023; -437.159; -375.713
503.593;   60.504; -464.147; -325.735
503.877;   56.498; -232.133; -156.760
504.161;  167.264;    2.847;  -50.724
504.444;  -36.367; -841.158; -710.716
504.728;  250.890; -487.164; -522.704
505.012;  476.482; -257.150;  -76.729
505.295;  341.013; -417.161; -212.711
505.579;  356.947; -256.156; -496.719
505.862;  499.916; -555.145; -333.738
506.146;  422.825; -681.159; -758.714
506.429;  454.525;  568.841;  461.286
506.713;   24.980; -732.151; -667.728
506.996;  275.356;   90.846;  295.278
507.280;  206.486; -633.165; -474.703
507.563;  166.051; -469.155; -261.721
507.847;   39.263; -423.153; -112.724
508.130;   24.914; -665.161; -456.711
508.413;   22.072; -758.167; -577.700
508.697;  212.472; -151.167;   12.300
508.980;   90.764; -422.153; -312.724
509.263;  -37.651; -466.155; -450.720
509.547;   43.582; -124.150;   82.271
509.830;   62.816; -172.160;  140.289
510.113;  140.147;  128.844;  298.281
510.396;  -13.432; -530.152; -300.725
510.680;   21.517; -818.145; -812.738
510.963;  508.160;  184.846;  180.277
511.246;  324.288; -493.150; -357.730
511.529;  190.821; -482.145;  -83.739
511.812;  252.595; -250.134;   10.241
512.095;  105.378; -740.151; -396.728
512.378;   30.707; -317.147; -245.736
512.661;  -44.528; -703.137; -623.753
512.944; -105.761; -750.142; -637.744
513.227;   60.370; -170.137; -171.752
513.510;  -27.872; -479.144; -671.741
513.793;  -34.649; -485.140; -435.747
514.076;  115.141;  -43.127;  -39.771
514.359;   79.395; -294.149; -135.732
514.642;   10.241; -442.142; -567.744
514.925;  632.350;  581.860;  561.253
515.208;  548.392; -498.134; -443.758
515.491;  403.103; -276.133; -182.761
515.773;  195.930; -410.143; -337.742
516.056; 1394.777;  249.864;  409.246
516.339; 1566.780; -754.136; -652.755
516.622; 1190.186; -518.150; -488.730
516.904; 1074.536;  882.857;  975.257
517.187;  309.469; -730.138; -523.752
517.470;  213.035; -568.143; -510.743
517.752;  227.182; -624.136; -470.756
518.035;  112.660; -708.139; -725.749
518.318;   94.580; -799.136; -744.755
518.600; 1317.905; -300.132; -325.762
518.883; 1840.140;  310.858;   88.256
519.165;  884.164; -585.138; -426.751
519.448;  280.905;  -61.132;  -19.762
519.730;   66.147; -573.126; -415.773
520.013;  372.000;  588.867;  664.240
520.295;  501.296;  -94.134;  -15.759
520.578;  995.615; -335.131; -305.764
520.860; 1160.105; -254.132;   56.238
521.143;  558.784; -763.135; -584.756
521.425;  283.756; -251.125; -279.775
521.707;  460.941; -622.127; -380.771
521.990; 1211.841; -199.127;  167.229
522.272; 1290.853; -116.140;   -4.748
522.554;  618.831; -237.143; -157.742
522.836;  229.795;  -24.134;   99.241
523.119;   91.302; -496.148; -189.734
523.401;   69.421; -448.130; -314.766
523.683;  -38.627; -865.137; -693.753
523.965;  289.868;  408.862;  260.248
524.247;  254.873;   54.878;  170.220
524.529;  141.796; -451.134; -367.759
524.812;  251.322;   -3.130;  191.234
525.094;  454.767; -773.138; -631.751
525.376;  882.463; -143.124;   78.223
525.658;  519.278; -441.136; -339.754
525.940; -101.887; -805.131; -671.764
526.222;    9.281; -188.136;  -88.755
526.504;   53.211; -190.131;   32.237
526.786;   13.798; -960.133; -647.760
527.068;  200.768; -124.123;  -67.778
527.349;  -54.224; -865.137; -774.754
527.631;   92.905; -137.132;   22.238
527.913;   27.340; -664.127; -450.771
528.195;   36.451; -761.125; -639.774
528.477;  200.292;  -93.134;  -30.758
528.759;  -40.578; -648.130; -522.766
529.040;  -12.433; -569.123; -293.778
529.322;   37.753; -235.125;  -10.774
529.604;   88.624;  -47.130;   93.233
529.886;  -20.754; -546.126; -302.773
530.167;  125.217;  232.870;  192.235
530.449;   47.507;    1.853;   63.265
530.731;  -40.228; -572.122; -459.779
531.012;  -31.112; -513.120; -216.784
531.294;   65.218; -118.116;  -43.792
531.575;  220.256;  290.875;  538.225
531.857;  -20.312; -548.135; -266.757
532.138;   86.647; -113.141;   40.254
532.420;  169.985;  294.865;  403.244
532.701;   30.700; -722.133; -751.760
532.983;  325.802;  232.867;  182.239
533.264;   98.845; -243.126;  175.228
533.546;  -17.519; -491.136; -508.755
533.827;  100.297;  173.867;   -1.759
534.109;   -0.312; -352.135;  -80.757
534.390;  -38.392; -725.132; -582.762
534.671;  165.085; -270.135;  -82.756
534.953;  -21.631; -751.123; -611.779
535.234;   15.707; -426.117; -255.789
535.515; -147.905; -891.119; -735.785
535.796;  -33.263; -431.128; -193.770
536.078; -222.037;-1050.124; -904.777
536.359;    1.069;  -22.123;    3.221
536.640;  -44.948; -480.125; -197.774
536.921;  162.628;  225.871;  143.232
537.202;  282.165;  -87.138;  -16.751
537.483;  399.815;  251.869;  377.236
537.764;  178.317;   17.870;   98.235
538.045;  -84.208; -543.134; -371.758
538.326; -101.971; -596.129; -447.768
538.607;  -64.458; -686.127; -476.771
538.888;  149.081;   98.879;    5.218
