
Integration time [ms]: 100.000
Averaging Nr. [scans]: 40
Smoothing Nr. [pixels]: 0
Data measured with spectrometer [name]: 2101013U2
Wave   ;Sample   ;Dark     ;Reference
[nm]   ;[counts] ;[counts] ;[counts] 

394.013;   54.503; -450.257; -315.536
394.305;  182.900; -461.258; -419.536
394.596; 1121.272; -676.269; -527.514
394.887; 2789.413; -796.268; -654.518
395.178; 1056.094;  145.736;   11.476
395.470;   81.730; -210.263; -356.526
395.761;  189.003;  305.734;  394.479
396.052;  262.720; -545.284; -306.489
396.343;  234.291; -557.276; -454.503
396.634;   92.134; -200.279; -290.497
396.926;  109.936; -618.268; -565.517
397.217;  103.770;   11.725;  -17.504
397.508;   48.586; -366.273; -154.507
397.799;   29.209; -555.279; -571.497
398.090;  -11.146; -973.280; -902.495
398.381;   99.720;   11.708;  -11.473
398.672;  -16.479; -585.292; -742.473
398.963;   37.890; -348.279; -373.498
399.254;  114.155;   54.709; -209.475
399.545;  -41.600;-1017.266; -883.520
399.836;   48.030; -407.277; -343.501
400.127;   41.721; -205.295; -209.468
400.418;   57.006; -423.274; -392.506
400.709;   61.166; -359.281; -333.493
401.000;   55.184; -268.291; -309.476
401.290;  104.457;  225.698;  115.545
401.581;   44.328; -166.286; -228.485
401.872;   14.493; -542.298; -486.462
402.163;   59.313; -313.296; -252.467
402.454;   83.756; -123.291; -163.475
402.744;   66.455; -844.297; -813.465
403.035;  390.586; -226.293;  -86.471
403.326;  516.049; -366.292; -384.474
403.617;  374.362;  204.701;  165.539
403.907;  246.001; -593.283; -679.490
404.198; 2446.836; -545.307; -599.446
404.489; 6372.831; -618.283; -588.491
404.779; 2113.010; -618.302; -660.456
405.070;  217.589;  -67.304; -174.451
405.360;  340.863; -259.293; -238.472
405.651;  370.072;  125.699;   98.542
405.942;  183.548;  209.714;  127.516
406.232;  231.913; -432.285; -413.487
406.523;  428.431;  641.706;  758.530
406.813;   85.900; -579.286; -644.484
407.104;  322.119;  261.708;  144.527
407.394;  165.888; -604.299; -591.462
407.685;  166.862;  336.715;  222.513
407.975;   65.005; -400.283; -382.490
408.265;  115.295; -134.289; -190.478
408.556;   63.178; -472.291; -459.475
408.846;  171.207;  474.706;  429.530
409.137;   88.154;   -1.288; -216.480
409.427;   48.163; -193.285; -271.487
409.717;   43.190; -776.273; -692.508
410.007;  131.281;    4.715; -170.486
410.298;   85.674; -360.295; -342.469
410.588;   60.435; -495.285; -510.486
410.878;   35.540; -792.287; -873.482
411.168;  121.970; -481.298; -478.463
411.459;  131.074; -295.283; -242.489
411.749;   50.626; -609.292; -507.474
412.039;   55.402; -755.289; -386.480
412.329;  200.423;   40.722;  132.501
412.619;  188.851;  -62.286; -148.485
412.909;  352.373;  639.711;  594.521
413.199;  307.779; -130.280; -251.495
413.490;  391.089;  521.710;  352.523
413.780;  139.783;-1013.279; -913.496
414.070;  314.492;  -46.276;  235.497
414.360;  350.344; -729.278; -666.498
414.650;  413.411; -726.288; -688.482
414.940;  531.207; -538.280; -441.496
415.230;  941.883;   50.712;   74.519
415.520; 6207.421;  155.730;   66.486
415.809;24377.715; -305.281; -125.493
416.099;19079.307; -388.277; -229.501
416.389; 5311.904;  435.726;  236.494
416.679; 3173.184;   91.738;   85.473
416.969;  557.494; -527.287; -503.483
417.259;  602.210;  341.721;  171.503
417.549;  717.164;  522.718;  318.508
417.838; 1707.463; -205.268; -147.518
418.128; 5652.144;  650.710;  492.522
418.418; 4754.646; -491.272; -579.509
418.708; 3186.704;    9.726;  -48.506
418.997;11969.799; -474.275; -480.505
419.287;12522.936; -733.273; -790.507
419.577;11955.724; -160.283; -123.489
419.866;39319.055; -588.277; -498.501
420.156;40097.042; -242.270;  -55.513
420.446; 7229.176; -112.263;  -26.526
420.735;  835.111; -376.271; -446.512
421.025;  828.868; 1830.722;  315.502
421.314;  641.209; -203.271; -226.512
421.604; 1257.781;   89.732;  233.484
421.893;  727.705; -705.271; -602.511
422.183;  231.127; -487.263; -461.526
422.472;  371.732;  -36.271; -107.511
422.762;  435.006; -416.266; -379.521
423.051;  245.567; -916.276; -916.503
423.341;  304.937; -491.273; -439.507
423.630;  411.662; -121.265;   15.477
423.919;  390.849;   58.725;   49.495
424.209;  379.932;  -31.263;   56.473
424.498;  516.085;   68.732;  161.483
424.787; 1128.442; -535.267; -601.518
425.077; 3399.885;   34.735;   29.478
425.366; 4664.813; -734.262; -744.528
425.655;10213.163;  639.727;  259.493
425.945;22737.668; -313.247; -268.554
426.234;12784.461;  117.741;  300.467
426.523; 5120.641;  -86.259; -350.534
426.812; 7171.352;  107.734;  159.480
427.101;10480.727; -127.269; -323.515
427.390;13195.246;  -55.270;  -86.514
427.680; 2882.186; -624.257; -411.538
427.969;  488.122; -330.255; -301.540
428.258;  303.452; -385.257; -477.536
428.547;  510.225;  449.728;  397.490
428.836; 1147.138; -421.253; -398.543
429.125; 1656.543; -199.259;  -72.534
429.414;  787.086; -330.251; -294.548
429.703; 3188.936; -231.251; -213.548
429.992; 9531.239; -938.250; -828.549
430.281; 6283.869; -397.264; -331.524
430.570;  559.076;  -21.252;   32.454
430.859;  492.090;  279.741;  352.466
431.148;  417.639;  636.752;  631.446
431.437;  283.126;  391.748;  367.454
431.725;  152.554; -544.257; -481.536
432.014;  131.020; -845.253; -756.545
432.303;  379.565; -149.239; -105.569
432.592;  573.026; -460.263; -178.525
432.881; 1079.165; -601.248; -437.554
433.169; 6371.372; -343.255;  -61.540
433.458;12961.374;  445.765;  540.424
433.747; 5481.418; -397.261; -289.529
434.036;  836.016; -275.242; -280.564
434.324; 2144.902; -395.249; -379.551
434.613; 3731.009;   40.757;  159.437
434.902; 1238.980;  333.760;  439.433
435.190;  480.139;   75.761;  295.431
435.479;  280.266;  -52.245;   83.441
435.767;   99.824; -411.244; -427.561
436.056;  193.711; -340.242; -294.563
436.345;  365.807; -372.240; -223.568
436.633;  379.872;   60.750;  383.450
436.922;  247.835;  208.760;  414.432
437.210;  499.914; -194.236;    1.426
437.499; 1593.397; -583.235; -432.576
437.787; 1775.088; -339.236;  -10.574
438.075;  475.994;   56.761;  162.430
438.364;  630.047;  -44.238;  250.429
438.652;  385.777; -286.226; -138.592
438.941;  121.716;    3.770;  269.415
439.229;   -2.527; -665.252; -466.545
439.517;   23.755; -160.234;  -85.577
439.806;   -3.832; -501.225; -290.595
440.094;  166.038;  377.766;  650.421
440.382;  141.567; -653.233; -302.580
440.670;  167.697; -361.235; -285.576
440.959;   20.811; -347.223; -170.599
441.247;   57.553; -151.229; -109.587
441.535;   96.629; -266.235;   31.423
441.823;   13.485; -497.234; -305.578
442.111;  162.857;  173.771;  327.412
442.400;  461.065; -628.245; -335.559
442.688; 1197.088; -111.234; -620.579
442.976;  827.449; -786.213; -450.617
443.264;   98.825; -324.224; -364.597
443.552;   73.003; -258.226;   51.408
443.840;  169.727;  602.765;  876.423
444.128;  111.991;  265.767;  269.420
444.416;    3.484; -694.228; -312.588
444.704;   18.365; -465.219;  -92.605
444.992;   71.106;   -0.226;  240.407
445.280;   38.192; -517.230;  -94.585
445.568;   34.778; -694.212; -396.618
445.856;  314.824; -174.221;  357.398
446.143;  666.762;  -54.220;   -7.604
446.431;  550.763;  -25.228;  625.411
446.719;  232.585;  489.783;  675.391
447.007;  169.311;  481.769;  705.416
447.295;  175.508;  597.777;  871.402
447.583;   85.950; -464.229;  -34.587
447.870;  142.771; -434.221; -202.601
448.158;  368.365; -104.230;  129.415
448.446;  287.513; -800.219; -338.604
448.733;  167.726;   13.776;  269.403
449.021;  247.627;   60.788;  341.382
449.309;  171.567; -296.210;  208.379
449.596;  217.106;  128.783;   59.392
449.884;  139.365; -571.222; -325.600
450.172;  155.019; -756.227; -406.590
450.459;  464.932;  645.786;  780.387
450.747; 2499.630; -411.218; -147.608
451.034; 7996.614;  493.772;  889.411
451.322; 6591.960; -413.214; -170.614
451.609;  562.478;  292.777;  508.403
451.897;  618.056; -550.203; -183.634
452.184; 1836.333; -622.223; -400.598
452.472; 1743.139;   97.792;  269.375
452.759;  339.013;  512.781;  864.395
453.047;  125.400; -407.212; -125.617
453.334;   56.296; -732.219; -216.606
453.621;   72.363; -438.214; -161.615
453.909;  113.398;   13.796;  384.368
454.196;   96.868; -299.199; -123.641
454.483;  204.419;  317.798;  540.364
454.771;  119.842; -215.208;  196.374
455.058;   32.570; -316.207;  102.374
455.345;  109.649;   71.807;  344.347
455.632;   83.173; -128.207;  235.373
455.919;   53.941;  -82.196;  182.354
456.207;  -76.802; -774.198; -450.642
456.494;  -15.969; -475.200;  -66.639
456.781;   -6.461; -399.202; -198.635
457.068;   58.555; -253.206;  -29.628
457.355;  -15.644; -698.206; -401.629
457.642;    0.812; -552.205; -290.630
457.929;  -14.385; -778.194; -417.651
458.216;   70.100; -575.212; -354.617
458.503;  255.969; -173.193;  -19.652
458.790;  241.590; -864.208; -630.625
459.077;  264.794;  -77.202;  110.364
459.364;  822.308; -350.195; -210.649
459.651; 1733.903;  -46.206;  220.372
459.938;  826.355; -864.209; -665.623
460.225;  141.973;  132.799;  276.363
460.512;  -52.087; -836.197; -688.645
460.799;   97.403;  -32.218;  320.392
461.086;   65.460; -370.200; -251.640
461.372;   19.998; -509.198; -279.642
461.659;  108.867; -165.196;  108.354
461.946;   46.993; -445.193;  -54.651
462.233;  234.758;  842.800;  888.361
462.519;  351.755; -814.201; -464.639
462.806; 1024.264; -768.197; -497.645
463.093;  896.839; -445.191;  -66.656
463.380;  -17.520; -920.186; -824.664
463.666;   49.915; -259.197;  -18.646
463.953;  105.677; -406.195; -243.648
464.239;  203.102; -173.195;  -77.648
464.526;  378.688;  413.806;  743.350
464.813;  328.050; -565.190; -304.658
465.099;  337.544;  606.807;  607.348
465.386;  323.373;  903.807;  921.348
465.672;   15.514; -694.197; -522.645
465.959;   20.919; -598.188; -520.662
466.245;   12.323; -468.193; -359.652
466.532;   84.225; -109.195;   63.352
466.818;   58.880; -357.186; -216.664
467.104;   -6.654; -488.182; -415.672
467.391;  -19.948; -628.189; -459.658
467.677;   35.134; -289.186;    9.335
467.964;   -3.041; -682.189; -471.660
468.250;   61.461; -331.186; -160.665
468.536;   84.404;   90.811;  180.341
468.822;  -26.427; -821.184; -574.668
469.109;  145.127;  351.827;  471.311
469.395;  185.233;  729.808;  787.346
469.681;  189.182;   46.811;  156.341
469.967; 1283.011; -699.188; -382.660
470.254; 2741.319; -494.188; -306.662
470.540; 1781.041; -601.196; -476.646
470.826;  261.657; -488.181; -397.675
471.112;  299.727;  288.816;  113.331
471.398;   90.907; -253.183;  -58.670
471.684;   44.585; -626.177; -447.680
471.970;    6.285; -918.180; -981.675
472.256;   26.757; -521.192; -441.654
472.542;   17.638; -499.171; -434.691
472.828;   -9.134; -743.182; -607.672
473.114;   34.181; -380.166; -283.700
473.400;   13.602; -504.175; -293.684
473.686;   26.763; -452.166; -400.701
473.972;   52.091; -230.174; -131.687
474.258;  -34.098; -925.173; -843.689
474.544;  204.127; -183.178;   -2.679
474.830;  346.303;  -65.175;   45.316
475.116;  513.427; -123.190; -196.658
475.401;  710.313; -558.180; -467.676
475.687;  205.537; -725.180; -718.676
475.973;   -2.901; -673.181; -770.673
476.259;  233.656;  736.825;  764.315
476.544;  356.843; -539.176; -437.682
476.830;  862.984; -398.172; -322.690
477.116;  760.567; -430.177; -336.682
477.401;  137.812;  346.820;  358.324
477.687;   -1.848; -289.175; -405.684
477.973;   34.228;   21.819;   28.326
478.258;    4.183; -448.163; -348.706
478.544;   37.917;   21.815;   61.334
478.829;  -55.407; -818.171; -738.692
479.115;  -52.892; -749.172; -651.690
479.401;  -17.338; -444.174; -449.686
479.686;   44.536; -253.180;  -74.676
479.972;  -23.118; -886.178; -776.680
480.257;   33.433; -258.166;  -65.700
480.542;   -6.928; -614.170; -469.693
480.828;  240.800; 1288.824; 1392.317
481.113;  -32.127; -464.176; -426.683
481.399;  -10.318; -236.161; -202.711
481.684;  -59.268; -620.166; -462.700
481.969;    3.946; -158.159;  -73.713
482.255;    4.108; -439.169; -285.695
482.540;    5.407; -569.178; -441.680
482.825;    6.575; -395.187; -404.663
483.110;  107.886;  -85.169; -105.696
483.396;  197.943; -840.157; -652.718
483.681;  526.742;  543.826;  730.313
483.966;  166.840; -696.160; -700.712
484.251;    2.691; -404.174; -310.687
484.536;   -3.432; -356.165; -378.703
484.822;   -3.006; -205.173; -218.687
485.107;  -30.819; -599.152; -502.726
485.392;  121.074;  662.836;  541.296
485.677;   71.871;  354.832;  163.302
485.962;  108.415;  160.843;  270.283
486.247;   78.841;  -14.162;   -8.707
486.532;   38.409; -178.166; -325.701
486.817;  159.877;  381.839;  431.291
487.102;  108.314; -453.154; -514.722
487.387;  711.444; -637.156; -652.718
487.672; 1237.154; -154.164;  -38.705
487.957;  798.884; -394.160; -286.711
488.241;  212.973; -290.150; -314.729
488.526;  767.207; -280.152; -148.726
488.811; 1264.134; -881.177; -818.680
489.096;  952.067; -666.154; -702.723
489.381;  517.454;    3.847;  162.275
489.666;  407.382; -428.161; -510.710
489.950;  174.920;  558.846;  627.277
490.235;  -25.907; -480.151; -458.728
490.520;  -54.444; -756.161; -723.710
490.804;  -58.629; -827.156; -736.719
491.089;    8.139; -469.149; -299.732
491.374;   41.203; -132.164;  -75.704
491.658;  -15.675; -817.147; -717.735
491.943;  150.737; -657.152; -609.727
492.227;  244.885; -178.155;  -38.721
492.512;   39.515; -294.157; -341.717
492.797;  -68.018; -713.149; -716.731
493.081;  -47.297; -588.147; -598.735
493.366;  -51.742; -751.161; -635.711
493.650;  209.206;  831.859;  917.254
493.935;   33.574; -648.147; -447.734
494.219;  -37.782; -778.142; -687.743
494.503;  -48.873; -585.150; -487.730
494.788;   46.556;   46.842;   74.285
495.072;  109.149;  184.850;  434.271
495.356;  164.417; -463.148; -343.733
495.641;  456.534; -812.146; -736.736
495.925;  456.876; -976.156; -903.719
496.209;   26.413; -599.149; -451.732
496.494;  -65.431; -763.142; -544.744
496.778;    6.039; -364.154; -360.722
497.062;  -57.649; -819.156; -627.719
497.346;  -38.014; -869.160; -640.711
497.631;  164.720;  580.852;  560.266
497.915;   62.770;  -64.145;  175.261
498.199;   60.293; -341.157; -277.718
498.483;   35.031; -562.152; -508.725
498.767;  183.650;  301.850;  300.271
499.051;  179.486; -126.149; -100.732
499.335;   19.884; -693.149; -739.731
499.619;  -43.442; -381.129; -423.767
499.903;   22.633; -272.155;  -65.721
500.187;   16.346; -588.153; -316.724
500.471;    9.811; -796.152; -595.727
500.755;  105.456;   62.839;  -96.710
501.039;   18.609; -270.155; -357.721
501.323;   83.483;  -21.141;  264.254
501.607;   30.534; -447.163; -503.706
501.891;  -13.531; -607.156; -512.718
502.174;  -36.444; -726.144; -585.741
502.458;   66.090;   89.849;  370.273
502.742;   36.082; -180.138; -191.751
503.026;  114.474; -412.147; -254.734
503.310;  185.445; -437.159; -375.713
503.593;  126.151; -464.147; -325.735
503.877;  117.798; -232.133; -156.760
504.161;  164.749;    2.847;  -50.724
504.444;  139.583; -841.158; -710.716
504.728;  482.427; -487.164; -522.704
505.012;  736.047; -257.150;  -76.729
505.295;  560.482; -417.161; -212.711
505.579;  563.201; -256.156; -496.719
505.862;  812.866; -555.145; -333.738
506.146;  779.147; -681.159; -758.714
506.429;  406.523;  568.841;  461.286
506.713;   74.819; -732.151; -667.728
506.996;  344.738;   90.846;  295.278
507.280;  370.972; -633.165; -474.703
507.563;  230.682; -469.155; -261.721
507.847;   97.647; -423.153; -112.724
508.130;   92.683; -665.161; -456.711
508.413;  128.379; -758.167; -577.700
508.697;  258.054; -151.167;   12.300
508.980;  160.148; -422.153; -312.724
509.263;  -11.697; -466.155; -450.720
509.547;   47.997; -124.150;   82.271
509.830;   47.660; -172.160;  140.289
510.113;   85.326;  128.844;  298.281
510.396;   14.829; -530.152; -300.725
510.680;  148.993; -818.145; -812.738
510.963;  522.568;  184.846;  180.277
511.246;  438.705; -493.150; -357.730
511.529;  246.573; -482.145;  -83.739
511.812;  396.019; -250.134;   10.241
512.095;  280.866; -740.151; -396.728
512.378;   71.055; -317.147; -245.736
512.661;   21.515; -703.137; -623.753
512.944;   22.345; -750.142; -637.744
513.227;   63.762; -170.137; -171.752
513.510;   33.081; -479.144; -671.741
513.793;   29.137; -485.140; -435.747
514.076;  145.479;  -43.127;  -39.771
514.359;  116.689; -294.149; -135.732
514.642;   82.098; -442.142; -567.744
514.925;  795.011;  581.860;  561.253
515.208; 1051.165; -498.134; -443.758
515.491;  687.679; -276.133; -182.761
515.773;  409.785; -410.143; -337.742
516.056; 2210.296;  249.864;  409.246
516.339; 2953.825; -754.136; -652.755
516.622; 1886.552; -518.150; -488.730
516.904; 1122.792;  882.857;  975.257
517.187;  490.086; -730.138; -523.752
517.470;  401.291; -568.143; -510.743
517.752;  445.053; -624.136; -470.756
518.035;  380.598; -708.139; -725.749
518.318;  399.550; -799.136; -744.755
518.600; 2591.083; -300.132; -325.762
518.883; 3599.148;  310.858;   88.256
519.165; 1753.678; -585.138; -426.751
519.448;  390.233;  -61.132;  -19.762
519.730;  188.411; -573.126; -415.773
520.013;  286.125;  588.867;  664.240
520.295;  742.846;  -94.134;  -15.759
520.578; 1665.171; -335.131; -305.764
520.860; 1871.508; -254.132;   56.238
521.143; 1005.930; -763.135; -584.756
521.425;  489.749; -251.125; -279.775
521.707;  694.204; -622.127; -380.771
521.990; 1879.230; -199.127;  167.229
522.272; 2110.639; -116.140;   -4.748
522.554;  962.861; -237.143; -157.742
522.836;  351.969;  -24.134;   99.241
523.119;  223.548; -496.148; -189.734
523.401;  161.053; -448.130; -314.766
523.683;   99.865; -865.137; -693.753
523.965;  277.359;  408.862;  260.248
524.247;  289.646;   54.878;  170.220
524.529;  218.896; -451.134; -367.759
524.812;  374.554;   -3.130;  191.234
525.094;  915.133; -773.138; -631.751
525.376; 1443.859; -143.124;   78.223
525.658;  879.472; -441.136; -339.754
525.940;   38.717; -805.131; -671.764
526.222;   28.726; -188.136;  -88.755
526.504;  117.965; -190.131;   32.237
526.786;  145.648; -960.133; -647.760
527.068;  294.439; -124.123;  -67.778
527.349;  111.769; -865.137; -774.754
527.631;  139.457; -137.132;   22.238
527.913;  130.203; -664.127; -450.771
528.195;  178.817; -761.125; -639.774
528.477;  249.216;  -93.134;  -30.758
528.759;  157.254; -648.130; -522.766
529.040;   66.838; -569.123; -293.778
529.322;   56.470; -235.125;  -10.774
529.604;  129.457;  -47.130;   93.233
529.886;  136.811; -546.126; -302.773
530.167;  120.798;  232.870;  192.235
530.449;   46.679;    1.853;   63.265
530.731;   25.295; -572.122; -459.779
531.012;   76.566; -513.120; -216.784
531.294;   71.780; -118.116;  -43.792
531.575;  156.424;  290.875;  538.225
531.857;   64.110; -548.135; -266.757
532.138;  107.782; -113.141;   40.254
532.420;  165.107;  294.865;  403.244
532.701;  192.176; -722.133; -751.760
532.983;  330.254;  232.867;  182.239
533.264;  117.284; -243.126;  175.228
533.546;  -51.674; -491.136; -508.755
533.827;   59.172;  173.867;   -1.759
534.109;   18.985; -352.135;  -80.757
534.390;   83.036; -725.132; -582.762
534.671;  264.606; -270.135;  -82.756
534.953;  147.891; -751.123; -611.779
535.234;    8.590; -426.117; -255.789
535.515;  -69.176; -891.119; -735.785
535.796;  -22.551; -431.128; -193.770
536.078; -115.642;-1050.124; -904.777
536.359;   -2.584;  -22.123;    3.221
536.640;   -3.631; -480.125; -197.774
536.921;  148.937;  225.871;  143.232
537.202;  382.605;  -87.138;  -16.751
537.483;  468.595;  251.869;  377.236
537.764;  200.298;   17.870;   98.235
538.045;  -47.785; -543.134; -371.758
538.326;  -44.461; -596.129; -447.768
538.607;   16.530; -686.127; -476.771
538.888;  184.782;   98.879;    5.218
