
Integration time [ms]: 100.000
Averaging Nr. [scans]: 40
Smoothing Nr. [pixels]: 0
Data measured with spectrometer [name]: 2101013U2
Wave   ;Sample   ;Dark     ;Reference
[nm]   ;[counts] ;[counts] ;[counts] 

394.013;   55.925; -450.257; -315.536
394.305;  203.373; -461.258; -419.536
394.596; 1121.520; -676.269; -527.514
394.887; 2758.037; -796.268; -654.518
395.178; 1059.517;  145.736;   11.476
395.470;   93.503; -210.263; -356.526
395.761;  200.276;  305.734;  394.479
396.052;  300.920; -545.284; -306.489
396.343;  276.965; -557.276; -454.503
396.634;   94.058; -200.279; -290.497
396.926;  103.534; -618.268; -565.517
397.217;  114.719;   11.725;  -17.504
397.508;   51.785; -366.273; -154.507
397.799;   42.033; -555.279; -571.497
398.090;    3.378; -973.280; -902.495
398.381;  110.820;   11.708;  -11.473
398.672;   -8.354; -585.292; -742.473
398.963;   36.964; -348.279; -373.498
399.254;  109.980;   54.709; -209.475
399.545;  -34.427;-1017.266; -883.520
399.836;   56.979; -407.277; -343.501
400.127;   41.596; -205.295; -209.468
400.418;   63.504; -423.274; -392.506
400.709;   59.565; -359.281; -333.493
401.000;   47.384; -268.291; -309.476
401.290;   95.308;  225.698;  115.545
401.581;   73.253; -166.286; -228.485
401.872;    9.968; -542.298; -486.462
402.163;   63.189; -313.296; -252.467
402.454;  106.581; -123.291; -163.475
402.744;   77.930; -844.297; -813.465
403.035;  427.786; -226.293;  -86.471
403.326;  551.624; -366.292; -384.474
403.617;  356.988;  204.701;  165.539
403.907;  255.251; -593.283; -679.490
404.198; 2449.012; -545.307; -599.446
404.489; 6302.481; -618.283; -588.491
404.779; 2075.062; -618.302; -660.456
405.070;  217.265;  -67.304; -174.451
405.360;  342.363; -259.293; -238.472
405.651;  361.423;  125.699;   98.542
405.942;  168.148;  209.714;  127.516
406.232;  255.012; -432.285; -413.487
406.523;  455.531;  641.706;  758.530
406.813;   94.000; -579.286; -644.484
407.104;  333.369;  261.708;  144.527
407.394;  174.489; -604.299; -591.462
407.685;  147.412;  336.715;  222.513
407.975;   60.104; -400.283; -382.490
408.265;  111.870; -134.289; -190.478
408.556;   61.678; -472.291; -459.475
408.846;  165.257;  474.706;  429.530
409.137;   87.479;   -1.288; -216.480
409.427;   43.487; -193.285; -271.487
409.717;   22.713; -776.273; -692.508
410.007;  139.531;    4.715; -170.486
410.298;   94.649; -360.295; -342.469
410.588;   72.685; -495.285; -510.486
410.878;   12.040; -792.287; -873.482
411.168;  114.671; -481.298; -478.463
411.459;  116.449; -295.283; -242.489
411.749;   57.926; -609.292; -507.474
412.039;   58.427; -755.289; -386.480
412.329;  199.647;   40.722;  132.501
412.619;  192.426;  -62.286; -148.485
412.909;  372.773;  639.711;  594.521
413.199;  331.903; -130.280; -251.495
413.490;  383.789;  521.710;  352.523
413.780;  145.257;-1013.279; -913.496
414.070;  322.491;  -46.276;  235.497
414.360;  359.968; -729.278; -666.498
414.650;  410.886; -726.288; -688.482
414.940;  530.031; -538.280; -441.496
415.230;  940.383;   50.712;   74.519
415.520; 6126.544;  155.730;   66.486
415.809;24336.389; -305.281; -125.493
416.099;18688.206; -388.277; -229.501
416.389; 5277.027;  435.726;  236.494
416.679; 3103.507;   91.738;   85.473
416.969;  521.819; -527.287; -503.483
417.259;  472.334;  341.721;  171.503
417.549;  682.438;  522.718;  318.508
417.838; 1678.461; -205.268; -147.518
418.128; 5558.544;  650.710;  492.522
418.418; 4642.444; -491.272; -579.509
418.708; 3162.802;    9.726;  -48.506
418.997;11837.248; -474.275; -480.505
419.287;12305.559; -733.273; -790.507
419.577;11747.598; -160.283; -123.489
419.866;38705.929; -588.277; -498.501
420.156;39453.090; -242.270;  -55.513
420.446; 7027.749; -112.263;  -26.526
420.735;  854.109; -376.271; -446.512
421.025;  829.017; 1830.722;  315.502
421.314;  657.857; -203.271; -226.512
421.604; 1378.004;   89.732;  233.484
421.893;  799.328; -705.271; -602.511
422.183;  242.674; -487.263; -461.526
422.472;  389.255;  -36.271; -107.511
422.762;  444.054; -416.266; -379.521
423.051;  249.241; -916.276; -916.503
423.341;  327.711; -491.273; -439.507
423.630;  412.535; -121.265;   15.477
423.919;  383.747;   58.725;   49.495
424.209;  365.380;  -31.263;   56.473
424.498;  492.708;   68.732;  161.483
424.787; 1097.340; -535.267; -601.518
425.077; 3377.633;   34.735;   29.478
425.366; 4765.485; -734.262; -744.528
425.655;10108.987;  639.727;  259.493
425.945;22240.664; -313.247; -268.554
426.234;12311.383;  117.741;  300.467
426.523; 5128.938;  -86.259; -350.534
426.812; 7033.500;  107.734;  159.480
427.101;10385.775; -127.269; -323.515
427.390;13147.644;  -55.270;  -86.514
427.680; 2884.883; -624.257; -411.538
427.969;  473.244; -330.255; -301.540
428.258;  322.250; -385.257; -477.536
428.547;  537.124;  449.728;  397.490
428.836; 1223.460; -421.253; -398.543
429.125; 1766.165; -199.259;  -72.534
429.414;  801.632; -330.251; -294.548
429.703; 3186.382; -231.251; -213.548
429.992; 9450.736; -938.250; -828.549
430.281; 6170.292; -397.264; -331.524
430.570;  559.123;  -21.252;   32.454
430.859;  541.088;  279.741;  352.466
431.148;  429.110;  636.752;  631.446
431.437;  294.722;  391.748;  367.454
431.725;  146.426; -544.257; -481.536
432.014;  136.542; -845.253; -756.545
432.303;  390.985; -149.239; -105.569
432.592;  611.624; -460.263; -178.525
432.881; 1055.511; -601.248; -437.554
433.169; 6324.420; -343.255;  -61.540
433.458;12884.119;  445.765;  540.424
433.747; 5319.266; -397.261; -289.529
434.036;  852.436; -275.242; -280.564
434.324; 2086.573; -395.249; -379.551
434.613; 3698.180;   40.757;  159.437
434.902; 1218.976;  333.760;  439.433
435.190;  526.859;   75.761;  295.431
435.479;  305.537;  -52.245;   83.441
435.767;   86.695; -411.244; -427.561
436.056;  200.232; -340.242; -294.563
436.345;  365.203; -372.240; -223.568
436.633;  399.044;   60.750;  383.450
436.922;  225.105;  208.760;  414.432
437.210;  546.009; -194.236;    1.426
437.499; 1766.817; -583.235; -432.576
437.787; 1929.084; -339.236;  -10.574
438.075;  486.340;   56.761;  162.430
438.364;  687.592;  -44.238;  250.429
438.652;  389.222; -286.226; -138.592
438.941;  128.236;    3.770;  269.415
439.229;    2.520; -665.252; -466.545
439.517;   32.726; -160.234;  -85.577
439.806;  -25.012; -501.225; -290.595
440.094;  178.483;  377.766;  650.421
440.382;  160.812; -653.233; -302.580
440.670;  188.717; -361.235; -285.576
440.959;   27.605; -347.223; -170.599
441.247;   76.372; -151.229; -109.587
441.535;   94.149; -266.235;   31.423
441.823;   19.131; -497.234; -305.578
442.111;  175.502;  173.771;  327.412
442.400;  502.361; -628.245; -335.559
442.688; 1307.233; -111.234; -620.579
442.976;  942.792; -786.213; -450.617
443.264;   93.444; -324.224; -364.597
443.552;   93.848; -258.226;   51.408
443.840;  166.448;  602.765;  876.423
444.128;  106.661;  265.767;  269.420
444.416;  -10.596; -694.228; -312.588
444.704;   28.984; -465.219;  -92.605
444.992;   73.426;   -0.226;  240.407
445.280;   46.862; -517.230;  -94.585
445.568;   32.596; -694.212; -396.618
445.856;  332.944; -174.221;  357.398
446.143;  731.881;  -54.220;   -7.604
446.431;  595.508;  -25.228;  625.411
446.719;  232.829;  489.783;  675.391
447.007;  171.906;  481.769;  705.416
447.295;  179.327;  597.777;  871.402
447.583;   77.920; -464.229;  -34.587
447.870;  125.590; -434.221; -202.601
448.158;  401.310; -104.230;  129.415
448.446;  304.957; -800.219; -338.604
448.733;  150.296;   13.776;  269.403
449.021;  250.995;   60.788;  341.382
449.309;  171.560; -296.210;  208.379
449.596;  223.100;  128.783;   59.392
449.884;  167.759; -571.222; -325.600
450.172;  152.863; -756.227; -406.590
450.459;  449.826;  645.786;  780.387
450.747; 2432.823; -411.218; -147.608
451.034; 7840.609;  493.772;  889.411
451.322; 6418.079; -413.214; -170.614
451.609;  547.622;  292.777;  508.403
451.897;  597.373; -550.203; -183.634
452.184; 1815.927; -622.223; -400.598
452.472; 1719.907;   97.792;  269.375
452.759;  333.032;  512.781;  864.395
453.047;  111.143; -407.212; -125.617
453.334;   74.265; -732.219; -216.606
453.621;   76.506; -438.214; -161.615
453.909;  113.465;   13.796;  384.368
454.196;   97.010; -299.199; -123.641
454.483;  192.986;  317.798;  540.364
454.771;  119.635; -215.208;  196.374
455.058;   32.713; -316.207;  102.374
455.345;  124.090;   71.807;  344.347
455.632;   73.816; -128.207;  235.373
455.919;   43.383;  -82.196;  182.354
456.207;  -63.235; -774.198; -450.642
456.494;   -5.252; -475.200;  -66.639
456.781;   -1.768; -399.202; -198.635
457.068;   41.523; -253.206;  -29.628
457.355;   -8.601; -698.206; -401.629
457.642;   -3.246; -552.205; -290.630
457.929;   -3.094; -778.194; -417.651
458.216;   51.293; -575.212; -354.617
458.503;  246.886; -173.193;  -19.652
458.790;  231.083; -864.208; -630.625
459.077;  268.087;  -77.202;  110.364
459.364;  804.424; -350.195; -210.649
459.651; 1718.296;  -46.206;  220.372
459.938;  786.648; -864.209; -665.623
460.225;  131.990;  132.799;  276.363
460.512;  -39.945; -836.197; -688.645
460.799;   99.022;  -32.218;  320.392
461.086;   59.953; -370.200; -251.640
461.372;   23.040; -509.198; -279.642
461.659;   95.409; -165.196;  108.354
461.946;   55.285; -445.193;  -54.651
462.233;  225.425;  842.800;  888.361
462.519;  347.422; -814.201; -464.639
462.806; 1007.456; -768.197; -497.645
463.093;  884.230; -445.191;  -66.656
463.380;  -26.204; -920.186; -824.664
463.666;   49.732; -259.197;  -18.646
463.953;   90.294; -406.195; -243.648
464.239;  197.769; -173.195;  -77.648
464.526;  389.155;  413.806;  743.350
464.813;  336.067; -565.190; -304.658
465.099;  347.511;  606.807;  607.348
465.386;  323.315;  903.807;  921.348
465.672;   16.781; -694.197; -522.645
465.959;   20.210; -598.188; -520.662
466.245;   11.990; -468.193; -359.652
466.532;   81.917; -109.195;   63.352
466.818;   61.296; -357.186; -216.664
467.104;   -0.539; -488.182; -415.672
467.391;  -21.856; -628.189; -459.658
467.677;   19.475; -289.186;    9.335
467.964;   -5.050; -682.189; -471.660
468.250;   52.352; -331.186; -160.665
468.536;   62.495;   90.811;  180.341
468.822;  -27.611; -821.184; -574.668
469.109;  134.942;  351.827;  471.311
469.395;  187.899;  729.808;  787.346
469.681;  183.498;   46.811;  156.341
469.967; 1262.478; -699.188; -382.660
470.254; 2758.961; -494.188; -306.662
470.540; 1744.183; -601.196; -476.646
470.826;  253.772; -488.181; -397.675
471.112;  303.368;  288.816;  113.331
471.398;   80.472; -253.183;  -58.670
471.684;   37.350; -626.177; -447.680
471.970;   -8.899; -918.180; -981.675
472.256;   21.723; -521.192; -441.654
472.542;   20.377; -499.171; -434.691
472.828;   11.732; -743.182; -607.672
473.114;   32.221; -380.166; -283.700
473.400;   -2.958; -504.175; -293.684
473.686;   32.277; -452.166; -400.701
473.972;   52.556; -230.174; -131.687
474.258;  -43.308; -925.173; -843.689
474.544;  206.417; -183.178;   -2.679
474.830;  340.669;  -65.175;   45.316
475.116;  498.943; -123.190; -196.658
475.401;  698.953; -558.180; -467.676
475.687;  183.352; -725.180; -718.676
475.973;   -4.885; -673.181; -770.673
476.259;  245.246;  736.825;  764.315
476.544;  364.983; -539.176; -437.682
476.830;  846.949; -398.172; -322.690
477.116;  749.032; -430.177; -336.682
477.401;  129.553;  346.820;  358.324
477.687;  -24.758; -289.175; -405.684
477.973;   36.769;   21.819;   28.326
478.258;  -12.478; -448.163; -348.706
478.544;   48.208;   21.815;   61.334
478.829;  -63.517; -818.171; -738.692
479.115;  -47.352; -749.172; -651.690
479.401;  -30.098; -444.174; -449.686
479.686;   28.427; -253.180;  -74.676
479.972;  -35.703; -886.178; -776.680
480.257;   32.747; -258.166;  -65.700
480.542;   -4.213; -614.170; -469.693
480.828;  225.865; 1288.824; 1392.317
481.113;  -34.812; -464.176; -426.683
481.399;   -9.904; -236.161; -202.711
481.684;  -47.203; -620.166; -462.700
481.969;   31.035; -158.159;  -73.713
482.255;  -11.427; -439.169; -285.695
482.540;    0.598; -569.178; -441.680
482.825;   14.016; -395.187; -404.663
483.110;   79.226;  -85.169; -105.696
483.396;  199.881; -840.157; -652.718
483.681;  491.532;  543.826;  730.313
483.966;  157.679; -696.160; -700.712
484.251;    8.456; -404.174; -310.687
484.536;    3.032; -356.165; -378.703
484.822;   24.884; -205.173; -218.687
485.107;  -24.806; -599.152; -502.726
485.392;  124.563;  662.836;  541.296
485.677;   77.336;  354.832;  163.302
485.962;   95.004;  160.843;  270.283
486.247;   87.530;  -14.162;   -8.707
486.532;   37.523; -178.166; -325.701
486.817;  158.516;  381.839;  431.291
487.102;  109.302; -453.154; -514.722
487.387;  687.008; -637.156; -652.718
487.672; 1231.193; -154.164;  -38.705
487.957;  762.548; -394.160; -286.711
488.241;  194.486; -290.150; -314.729
488.526;  740.720; -280.152; -148.726
488.811; 1208.149; -881.177; -818.680
489.096;  929.630; -666.154; -702.723
489.381;  509.767;    3.847;  162.275
489.666;  385.396; -428.161; -510.710
489.950;  163.408;  558.846;  627.277
490.235;  -45.594; -480.151; -458.728
490.520;  -41.680; -756.161; -723.710
490.804;  -59.840; -827.156; -736.719
491.089;    9.526; -469.149; -299.732
491.374;   23.367; -132.164;  -75.704
491.658;  -21.962; -817.147; -717.735
491.943;  165.575; -657.152; -609.727
492.227;  230.198; -178.155;  -38.721
492.512;   48.578; -294.157; -341.717
492.797;  -66.180; -713.149; -716.731
493.081;  -46.084; -588.147; -598.735
493.366;  -48.204; -751.161; -635.711
493.650;  194.768;  831.859;  917.254
493.935;   29.412; -648.147; -447.734
494.219;  -26.594; -778.142; -687.743
494.503;  -34.585; -585.150; -487.730
494.788;   38.495;   46.842;   74.285
495.072;  103.887;  184.850;  434.271
495.356;  186.930; -463.148; -343.733
495.641;  472.722; -812.146; -736.736
495.925;  442.990; -976.156; -903.719
496.209;   27.226; -599.149; -451.732
496.494;  -51.669; -763.142; -544.744
496.778;   -2.723; -364.154; -360.722
497.062;  -62.336; -819.156; -627.719
497.346;  -33.601; -869.160; -640.711
497.631;  154.783;  580.852;  560.266
497.915;   68.233;  -64.145;  175.261
498.199;   49.106; -341.157; -277.718
498.483;   40.069; -562.152; -508.725
498.767;  186.863;  301.850;  300.271
499.051;  187.774; -126.149; -100.732
499.335;   26.047; -693.149; -739.731
499.619;  -28.281; -381.129; -423.767
499.903;   18.272; -272.155;  -65.721
500.187;   31.909; -588.153; -316.724
500.471;    7.974; -796.152; -595.727
500.755;  109.020;   62.839;  -96.710
501.039;    9.422; -270.155; -357.721
501.323;   81.620;  -21.141;  264.254
501.607;   25.423; -447.163; -503.706
501.891;  -10.842; -607.156; -512.718
502.174;  -37.906; -726.144; -585.741
502.458;   82.928;   89.849;  370.273
502.742;   40.369; -180.138; -191.751
503.026;  110.837; -412.147; -254.734
503.310;  173.808; -437.159; -375.713
503.593;  111.138; -464.147; -325.735
503.877;  110.384; -232.133; -156.760
504.161;  173.487;    2.847;  -50.724
504.444;  124.447; -841.158; -710.716
504.728;  464.341; -487.164; -522.704
505.012;  731.010; -257.150;  -76.729
505.295;  539.046; -417.161; -212.711
505.579;  543.239; -256.156; -496.719
505.862;  778.904; -555.145; -333.738
506.146;  768.711; -681.159; -758.714
506.429;  399.911;  568.841;  461.286
506.713;   60.432; -732.151; -667.728
506.996;  335.502;   90.846;  295.278
507.280;  350.236; -633.165; -474.703
507.563;  228.895; -469.155; -261.721
507.847;  120.035; -423.153; -112.724
508.130;   87.747; -665.161; -456.711
508.413;  114.743; -758.167; -577.700
508.697;  257.343; -151.167;   12.300
508.980;  154.462; -422.153; -312.724
509.263;   -3.283; -466.155; -450.720
509.547;   42.185; -124.150;   82.271
509.830;   41.299; -172.160;  140.289
510.113;   69.314;  128.844;  298.281
510.396;   32.642; -530.152; -300.725
510.680;  155.130; -818.145; -812.738
510.963;  606.581;  184.846;  180.277
511.246;  509.442; -493.150; -357.730
511.529;  258.410; -482.145;  -83.739
511.812;  382.756; -250.134;   10.241
512.095;  278.929; -740.151; -396.728
512.378;   74.767; -317.147; -245.736
512.661;   31.802; -703.137; -623.753
512.944;   22.133; -750.142; -637.744
513.227;   70.299; -170.137; -171.752
513.510;   26.419; -479.144; -671.741
513.793;   16.424; -485.140; -435.747
514.076;  131.865;  -43.127;  -39.771
514.359;  109.377; -294.149; -135.732
514.642;   87.261; -442.142; -567.744
514.925;  770.648;  581.860;  561.253
515.208; 1036.977; -498.134; -443.758
515.491;  674.166; -276.133; -182.761
515.773;  374.447; -410.143; -337.742
516.056; 2170.558;  249.864;  409.246
516.339; 2904.462; -754.136; -652.755
516.622; 1889.515; -518.150; -488.730
516.904; 1204.204;  882.857;  975.257
517.187;  555.447; -730.138; -523.752
517.470;  414.728; -568.143; -510.743
517.752;  440.790; -624.136; -470.756
518.035;  371.085; -708.139; -725.749
518.318;  389.662; -799.136; -744.755
518.600; 2509.669; -300.132; -325.762
518.883; 3466.635;  310.858;   88.256
519.165; 1677.015; -585.138; -426.751
519.448;  399.644;  -61.132;  -19.762
519.730;  201.272; -573.126; -415.773
520.013;  296.162;  588.867;  664.240
520.295;  773.957;  -94.134;  -15.759
520.578; 1780.907; -335.131; -305.764
520.860; 2027.544; -254.132;   56.238
521.143; 1055.567; -763.135; -584.756
521.425;  487.835; -251.125; -279.775
521.707;  701.865; -622.127; -380.771
521.990; 1822.416; -199.127;  167.229
522.272; 2085.826; -116.140;   -4.748
522.554;  930.223; -237.143; -157.742
522.836;  359.855;  -24.134;   99.241
523.119;  234.611; -496.148; -189.734
523.401;  143.764; -448.130; -314.766
523.683;   85.902; -865.137; -693.753
523.965;  292.270;  408.862;  260.248
524.247;  273.631;   54.878;  170.220
524.529;  206.057; -451.134; -367.759
524.812;  366.766;   -3.130;  191.234
525.094;  877.570; -773.138; -631.751
525.376; 1408.194; -143.124;   78.223
525.658;  863.134; -441.136; -339.754
525.940;   26.254; -805.131; -671.764
526.222;   33.463; -188.136;  -88.755
526.504;  117.527; -190.131;   32.237
526.786;  178.560; -960.133; -647.760
527.068;  305.900; -124.123;  -67.778
527.349;  103.481; -865.137; -774.754
527.631;  131.269; -137.132;   22.238
527.913;  140.264; -664.127; -450.771
528.195;  169.328; -761.125; -639.774
528.477;  256.602;  -93.134;  -30.758
528.759;  149.116; -648.130; -522.766
529.040;   53.623; -569.123; -293.778
529.322;   63.756; -235.125;  -10.774
529.604;  134.693;  -47.130;   93.233
529.886;  134.372; -546.126; -302.773
530.167;  126.535;  232.870;  192.235
530.449;   30.467;    1.853;   63.265
530.731;   38.755; -572.122; -459.779
531.012;   76.976; -513.120; -216.784
531.294;   76.115; -118.116;  -43.792
531.575;  138.210;  290.875;  538.225
531.857;   55.697; -548.135; -266.757
532.138;   94.944; -113.141;   40.254
532.420;  178.543;  294.865;  403.244
532.701;  204.387; -722.133; -751.760
532.983;  339.315;  232.867;  182.239
533.264;  112.220; -243.126;  175.228
533.546;  -19.788; -491.136; -508.755
533.827;   35.184;  173.867;   -1.759
534.109;   33.322; -352.135;  -80.757
534.390;   88.748; -725.132; -582.762
534.671;  250.168; -270.135;  -82.756
534.953;  146.351; -751.123; -611.779
535.234;   24.750; -426.117; -255.789
535.515;  -84.066; -891.119; -735.785
535.796;  -12.590; -431.128; -193.770
536.078; -112.756;-1050.124; -904.777
536.359;   -3.898;  -22.123;    3.221
536.640;  -23.870; -480.125; -197.774
536.921;  156.323;  225.871;  143.232
537.202;  383.842;  -87.138;  -16.751
537.483;  461.031;  251.869;  377.236
537.764;  175.035;   17.870;   98.235
538.045;  -42.024; -543.134; -371.758
538.326;  -27.325; -596.129; -447.768
538.607;   18.516; -686.127; -476.771
538.888;  170.867;   98.879;    5.218
