
Integration time [ms]: 200.000
Averaging Nr. [scans]: 10
Smoothing Nr. [pixels]: 0
Data measured with spectrometer [name]: 2101013U2
Wave   ;Sample   ;Dark     ;Reference
[nm]   ;[counts] ;[counts] ;[counts] 

394.013;   96.966; -450.257; -315.536
394.305;  405.063; -461.258; -419.536
394.596; 1992.111; -676.269; -527.514
394.887; 4680.535; -796.268; -654.518
395.178; 1850.280;  145.736;   11.476
395.470;  137.797; -210.263; -356.526
395.761;  417.857;  305.734;  394.479
396.052;  596.125; -545.284; -306.489
396.343;  548.429; -557.276; -454.503
396.634;  160.682; -200.279; -290.497
396.926;  154.131; -618.268; -565.517
397.217;  178.035;   11.725;  -17.504
397.508;   68.959; -366.273; -154.507
397.799;   31.782; -555.279; -571.497
398.090;  -85.826; -973.280; -902.495
398.381;  208.614;   11.708;  -11.473
398.672;  -93.884; -585.292; -742.473
398.963;   60.291; -348.279; -373.498
399.254;  182.430;   54.709; -209.475
399.545; -101.948;-1017.266; -883.520
399.836;   80.112; -407.277; -343.501
400.127;   82.779; -205.295; -209.468
400.418;   73.251; -423.274; -392.506
400.709;   80.255; -359.281; -333.493
401.000;   72.335; -268.291; -309.476
401.290;  222.086;  225.698;  115.545
401.581;  105.200; -166.286; -228.485
401.872;    0.038; -542.298; -486.462
402.163;   76.668; -313.296; -252.467
402.454;  129.231; -123.291; -163.475
402.744;   65.555; -844.297; -813.465
403.035;  618.702; -226.293;  -86.471
403.326;  835.420; -366.292; -384.474
403.617;  568.230;  204.701;  165.539
403.907;  362.734; -593.283; -679.490
404.198; 4222.918; -545.307; -599.446
404.489;10668.541; -618.283; -588.491
404.779; 3625.091; -618.302; -660.456
405.070;  396.359;  -67.304; -174.451
405.360;  591.004; -259.293; -238.472
405.651;  676.707;  125.699;   98.542
405.942;  315.193;  209.714;  127.516
406.232;  360.114; -432.285; -413.487
406.523;  779.894;  641.706;  758.530
406.813;  127.596; -579.286; -644.484
407.104;  572.313;  261.708;  144.527
407.394;  242.832; -604.299; -591.462
407.685;  284.413;  336.715;  222.513
407.975;   73.739; -400.283; -382.490
408.265;  191.752; -134.289; -190.478
408.556;   94.326; -472.291; -459.475
408.846;  321.795;  474.706;  429.530
409.137;  166.964;   -1.288; -216.480
409.427;  103.014; -193.285; -271.487
409.717;   20.264; -776.273; -692.508
410.007;  237.104;    4.715; -170.486
410.298;  134.683; -360.295; -342.469
410.588;  113.910; -495.285; -510.486
410.878;   -9.019; -792.287; -873.482
411.168;  196.242; -481.298; -478.463
411.459;  170.931; -295.283; -242.489
411.749;   46.124; -609.292; -507.474
412.039;   25.862; -755.289; -386.480
412.329;  376.302;   40.722;  132.501
412.619;  311.297;  -62.286; -148.485
412.909;  689.256;  639.711;  594.521
413.199;  508.374; -130.280; -251.495
413.490;  663.842;  521.710;  352.523
413.780;  169.780;-1013.279; -913.496
414.070;  574.730;  -46.276;  235.497
414.360;  535.496; -729.278; -666.498
414.650;  664.175; -726.288; -688.482
414.940;  901.379; -538.280; -441.496
415.230; 1541.170;   50.712;   74.519
415.520;10753.109;  155.730;   66.486
415.809;41013.454; -305.281; -125.493
416.099;32386.816; -388.277; -229.501
416.389; 8904.847;  435.726;  236.494
416.679; 5359.202;   91.738;   85.473
416.969;  901.587; -527.287; -503.483
417.259; 1005.083;  341.721;  171.503
417.549; 1175.253;  522.718;  318.508
417.838; 2889.934; -205.268; -147.518
418.128; 9543.550;  650.710;  492.522
418.418; 8016.973; -491.272; -579.509
418.708; 5386.648;    9.726;  -48.506
418.997;20014.141; -474.275; -480.505
419.287;20947.358; -733.273; -790.507
419.577;20346.430; -160.283; -123.489
419.866;63020.113; -588.277; -498.501
420.156;63867.203; -242.270;  -55.513
420.446;12377.191; -112.263;  -26.526
420.735; 1349.595; -376.271; -446.512
421.025; 1506.995; 1830.722;  315.502
421.314; 1080.592; -203.271; -226.512
421.604; 2071.024;   89.732;  233.484
421.893; 1178.786; -705.271; -602.511
422.183;  366.991; -487.263; -461.526
422.472;  634.788;  -36.271; -107.511
422.762;  735.661; -416.266; -379.521
423.051;  392.331; -916.276; -916.503
423.341;  499.260; -491.273; -439.507
423.630;  654.070; -121.265;   15.477
423.919;  655.040;   58.725;   49.495
424.209;  642.100;  -31.263;   56.473
424.498;  852.831;   68.732;  161.483
424.787; 1817.740; -535.267; -601.518
425.077; 5572.068;   34.735;   29.478
425.366; 7358.008; -734.262; -744.528
425.655;16780.161;  639.727;  259.493
425.945;36550.899; -313.247; -268.554
426.234;21124.741;  117.741;  300.467
426.523; 8542.149;  -86.259; -350.534
426.812;12024.955;  107.734;  159.480
427.101;17444.918; -127.269; -323.515
427.390;21549.209;  -55.270;  -86.514
427.680; 4477.178; -624.257; -411.538
427.969;  811.194; -330.255; -301.540
428.258;  520.566; -385.257; -477.536
428.547;  921.879;  449.728;  397.490
428.836; 1812.718; -421.253; -398.543
429.125; 2557.352; -199.259;  -72.534
429.414; 1270.451; -330.251; -294.548
429.703; 5328.351; -231.251; -213.548
429.992;15756.357; -938.250; -828.549
430.281;10530.981; -397.264; -331.524
430.570;  982.237;  -21.252;   32.454
430.859;  896.548;  279.741;  352.466
431.148;  769.792;  636.752;  631.446
431.437;  512.837;  391.748;  367.454
431.725;  239.368; -544.257; -481.536
432.014;  175.329; -845.253; -756.545
432.303;  605.504; -149.239; -105.569
432.592;  935.791; -460.263; -178.525
432.881; 1681.194; -601.248; -437.554
433.169;10776.295; -343.255;  -61.540
433.458;21241.854;  445.765;  540.424
433.747; 9082.716; -397.261; -289.529
434.036; 1409.769; -275.242; -280.564
434.324; 3556.975; -395.249; -379.551
434.613; 6166.459;   40.757;  159.437
434.902; 1988.490;  333.760;  439.433
435.190;  827.402;   75.761;  295.431
435.479;  430.332;  -52.245;   83.441
435.767;  128.744; -411.244; -427.561
436.056;  304.962; -340.242; -294.563
436.345;  564.793; -372.240; -223.568
436.633;  726.368;   60.750;  383.450
436.922;  433.396;  208.760;  414.432
437.210;  809.339; -194.236;    1.426
437.499; 2438.351; -583.235; -432.576
437.787; 2794.039; -339.236;  -10.574
438.075;  767.311;   56.761;  162.430
438.364; 1016.214;  -44.238;  250.429
438.652;  610.969; -286.226; -138.592
438.941;  211.816;    3.770;  269.415
439.229;  -37.667; -665.252; -466.545
439.517;   40.064; -160.234;  -85.577
439.806;  -63.608; -501.225; -290.595
440.094;  343.975;  377.766;  650.421
440.382;  217.281; -653.233; -302.580
440.670;  244.751; -361.235; -285.576
440.959;   43.618; -347.223; -170.599
441.247;  126.433; -151.229; -109.587
441.535;  142.861; -266.235;   31.423
441.823;   18.771; -497.234; -305.578
442.111;  310.139;  173.771;  327.412
442.400;  709.531; -628.245; -335.559
442.688; 1814.574; -111.234; -620.579
442.976; 1226.048; -786.213; -450.617
443.264;  143.702; -324.224; -364.597
443.552;  156.871; -258.226;   51.408
443.840;  291.759;  602.765;  876.423
444.128;  182.879;  265.767;  269.420
444.416;  -16.957; -694.228; -312.588
444.704;   16.962; -465.219;  -92.605
444.992;  109.275;   -0.226;  240.407
445.280;   53.517; -517.230;  -94.585
445.568;   21.553; -694.212; -396.618
445.856;  469.638; -174.221;  357.398
446.143;  976.856;  -54.220;   -7.604
446.431;  884.348;  -25.228;  625.411
446.719;  411.390;  489.783;  675.391
447.007;  285.409;  481.769;  705.416
447.295;  311.014;  597.777;  871.402
447.583;  118.029; -464.229;  -34.587
447.870;  206.634; -434.221; -202.601
448.158;  598.015; -104.230;  129.415
448.446;  374.458; -800.219; -338.604
448.733;  288.804;   13.776;  269.403
449.021;  412.652;   60.788;  341.382
449.309;  236.874; -296.210;  208.379
449.596;  300.285;  128.783;   59.392
449.884;  227.424; -571.222; -325.600
450.172;  191.656; -756.227; -406.590
450.459;  723.223;  645.786;  780.387
450.747; 4040.982; -411.218; -147.608
451.034;12754.750;  493.772;  889.411
451.322;10650.127; -413.214; -170.614
451.609;  952.506;  292.777;  508.403
451.897; 1015.467; -550.203; -183.634
452.184; 2987.914; -622.223; -400.598
452.472; 2887.706;   97.792;  269.375
452.759;  635.259;  512.781;  864.395
453.047;  127.149; -407.212; -125.617
453.334;   83.370; -732.219; -216.606
453.621;  115.831; -438.214; -161.615
453.909;  209.056;   13.796;  384.368
454.196;  175.123; -299.199; -123.641
454.483;  339.587;  317.798;  540.364
454.771;  225.210; -215.208;  196.374
455.058;   89.415; -316.207;  102.374
455.345;  201.104;   71.807;  344.347
455.632;  159.120; -128.207;  235.373
455.919;   86.656;  -82.196;  182.354
456.207; -124.171; -774.198; -450.642
456.494;  -42.396; -475.200;  -66.639
456.781;   -2.020; -399.202; -198.635
457.068;   91.230; -253.206;  -29.628
457.355;  -56.269; -698.206; -401.629
457.642;  -30.360; -552.205; -290.630
457.929;  -18.409; -778.194; -417.651
458.216;   74.649; -575.212; -354.617
458.503;  386.098; -173.193;  -19.652
458.790;  342.307; -864.208; -630.625
459.077;  447.687;  -77.202;  110.364
459.364; 1330.580; -350.195; -210.649
459.651; 2782.027;  -46.206;  220.372
459.938; 1318.393; -864.209; -665.623
460.225;  292.492;  132.799;  276.363
460.512; -119.248; -836.197; -688.645
460.799;  202.681;  -32.218;  320.392
461.086;   79.211; -370.200; -251.640
461.372;   48.930; -509.198; -279.642
461.659;  128.658; -165.196;  108.354
461.946;   69.696; -445.193;  -54.651
462.233;  420.908;  842.800;  888.361
462.519;  544.503; -814.201; -464.639
462.806; 1610.852; -768.197; -497.645
463.093; 1469.426; -445.191;  -66.656
463.380;  -94.513; -920.186; -824.664
463.666;  100.755; -259.197;  -18.646
463.953;  157.773; -406.195; -243.648
464.239;  318.573; -173.195;  -77.648
464.526;  614.289;  413.806;  743.350
464.813;  465.943; -565.190; -304.658
465.099;  601.797;  606.807;  607.348
465.386;  558.503;  903.807;  921.348
465.672;  -42.647; -694.197; -522.645
465.959;   -9.830; -598.188; -520.662
466.245;    8.103; -468.193; -359.652
466.532;  134.370; -109.195;   63.352
466.818;   33.987; -357.186; -216.664
467.104;  -32.254; -488.182; -415.672
467.391;  -48.354; -628.189; -459.658
467.677;   42.892; -289.186;    9.335
467.964;  -20.744; -682.189; -471.660
468.250;  119.296; -331.186; -160.665
468.536;  185.148;   90.811;  180.341
468.822;  -60.587; -821.184; -574.668
469.109;  274.165;  351.827;  471.311
469.395;  366.617;  729.808;  787.346
469.681;  319.552;   46.811;  156.341
469.967; 2039.159; -699.188; -382.660
470.254; 4397.571; -494.188; -306.662
470.540; 2891.956; -601.196; -476.646
470.826;  366.162; -488.181; -397.675
471.112;  480.619;  288.816;  113.331
471.398;  183.026; -253.183;  -58.670
471.684;   57.604; -626.177; -447.680
471.970;  -33.032; -918.180; -981.675
472.256;   36.116; -521.192; -441.654
472.542;   -3.819; -499.171; -434.691
472.828;  -16.860; -743.182; -607.672
473.114;   31.646; -380.166; -283.700
473.400;    8.328; -504.175; -293.684
473.686;   42.655; -452.166; -400.701
473.972;  125.350; -230.174; -131.687
474.258; -103.235; -925.173; -843.689
474.544;  335.192; -183.178;   -2.679
474.830;  538.631;  -65.175;   45.316
475.116;  799.946; -123.190; -196.658
475.401; 1049.971; -558.180; -467.676
475.687;  282.870; -725.180; -718.676
475.973;  -18.948; -673.181; -770.673
476.259;  413.234;  736.825;  764.315
476.544;  545.816; -539.176; -437.682
476.830; 1355.175; -398.172; -322.690
477.116; 1226.214; -430.177; -336.682
477.401;  263.371;  346.820;  358.324
477.687;  -52.371; -289.175; -405.684
477.973;   48.957;   21.819;   28.326
478.258;  -19.415; -448.163; -348.706
478.544;  129.504;   21.815;   61.334
478.829; -130.911; -818.171; -738.692
479.115;  -96.325; -749.172; -651.690
479.401;  -36.257; -444.174; -449.686
479.686;   91.369; -253.180;  -74.676
479.972;  -84.801; -886.178; -776.680
480.257;   49.148; -258.166;  -65.700
480.542;  -12.405; -614.170; -469.693
480.828;  475.526; 1288.824; 1392.317
481.113; -100.177; -464.176; -426.683
481.399;    8.820; -236.161; -202.711
481.684;  -87.553; -620.166; -462.700
481.969;   51.740; -158.159;  -73.713
482.255;  -21.189; -439.169; -285.695
482.540;  -13.200; -569.178; -441.680
482.825;    0.480; -395.187; -404.663
483.110;  188.316;  -85.169; -105.696
483.396;  270.772; -840.157; -652.718
483.681;  847.450;  543.826;  730.313
483.966;  212.631; -696.160; -700.712
484.251;  -10.751; -404.174; -310.687
484.536;  -20.537; -356.165; -378.703
484.822;   12.253; -205.173; -218.687
485.107;  -66.972; -599.152; -502.726
485.392;  265.971;  662.836;  541.296
485.677;  159.930;  354.832;  163.302
485.962;  234.868;  160.843;  270.283
486.247;  142.697;  -14.162;   -8.707
486.532;   87.449; -178.166; -325.701
486.817;  308.612;  381.839;  431.291
487.102;  149.203; -453.154; -514.722
487.387; 1089.174; -637.156; -652.718
487.672; 1908.679; -154.164;  -38.705
487.957; 1251.722; -394.160; -286.711
488.241;  328.653; -290.150; -314.729
488.526; 1162.330; -280.152; -148.726
488.811; 1903.103; -881.177; -818.680
489.096; 1458.307; -666.154; -702.723
489.381;  846.425;    3.847;  162.275
489.666;  622.820; -428.161; -510.710
489.950;  355.111;  558.846;  627.277
490.235;  -88.555; -480.151; -458.728
490.520;  -87.082; -756.161; -723.710
490.804; -110.523; -827.156; -736.719
491.089;    3.376; -469.149; -299.732
491.374;   47.377; -132.164;  -75.704
491.658;  -59.907; -817.147; -717.735
491.943;  216.036; -657.152; -609.727
492.227;  392.797; -178.155;  -38.721
492.512;   77.467; -294.157; -341.717
492.797; -134.733; -713.149; -716.731
493.081;  -99.503; -588.147; -598.735
493.366; -120.979; -751.161; -635.711
493.650;  384.975;  831.859;  917.254
493.935;   24.692; -648.147; -447.734
494.219; -127.644; -778.142; -687.743
494.503;  -82.240; -585.150; -487.730
494.788;   93.855;   46.842;   74.285
495.072;  221.155;  184.850;  434.271
495.356;  269.981; -463.148; -343.733
495.641;  647.307; -812.146; -736.736
495.925;  589.885; -976.156; -903.719
496.209;   20.975; -599.149; -451.732
496.494; -113.643; -763.142; -544.744
496.778;   16.403; -364.154; -360.722
497.062; -128.816; -819.156; -627.719
497.346;  -83.075; -869.160; -640.711
497.631;  284.186;  580.852;  560.266
497.915;  155.722;  -64.145;  175.261
498.199;   68.472; -341.157; -277.718
498.483;   57.028; -562.152; -508.725
498.767;  367.956;  301.850;  300.271
499.051;  305.172; -126.149; -100.732
499.335;   15.069; -693.149; -739.731
499.619;  -43.775; -381.129; -423.767
499.903;   49.995; -272.155;  -65.721
500.187;   32.914; -588.153; -316.724
500.471;  -15.865; -796.152; -595.727
500.755;  127.519;   62.839;  -96.710
501.039;   31.896; -270.155; -357.721
501.323;  162.178;  -21.141;  264.254
501.607;   27.286; -447.163; -503.706
501.891;   -8.826; -607.156; -512.718
502.174;  -98.061; -726.144; -585.741
502.458;  144.341;   89.849;  370.273
502.742;   72.213; -180.138; -191.751
503.026;  168.691; -412.147; -254.734
503.310;  300.438; -437.159; -375.713
503.593;  204.194; -464.147; -325.735
503.877;  153.573; -232.133; -156.760
504.161;  270.717;    2.847;  -50.724
504.444;  128.058; -841.158; -710.716
504.728;  718.075; -487.164; -522.704
505.012; 1137.552; -257.150;  -76.729
505.295;  887.420; -417.161; -212.711
505.579;  877.784; -256.156; -496.719
505.862; 1232.417; -555.145; -333.738
506.146; 1192.242; -681.159; -758.714
506.429;  744.943;  568.841;  461.286
506.713;   71.847; -732.151; -667.728
506.996;  559.702;   90.846;  295.278
507.280;  470.868; -633.165; -474.703
507.563;  365.593; -469.155; -261.721
507.847;  149.415; -423.153; -112.724
508.130;  134.721; -665.161; -456.711
508.413;  165.441; -758.167; -577.700
508.697;  439.642; -151.167;   12.300
508.980;  244.417; -422.153; -312.724
509.263;  -35.513; -466.155; -450.720
509.547;   53.451; -124.150;   82.271
509.830;   88.124; -172.160;  140.289
510.113;  144.683;  128.844;  298.281
510.396;   70.725; -530.152; -300.725
510.680;  126.519; -818.145; -812.738
510.963;  784.009;  184.846;  180.277
511.246;  634.463; -493.150; -357.730
511.529;  392.026; -482.145;  -83.739
511.812;  587.667; -250.134;   10.241
512.095;  397.143; -740.151; -396.728
512.378;  136.300; -317.147; -245.736
512.661;   27.524; -703.137; -623.753
512.944;    6.659; -750.142; -637.744
513.227;  108.320; -170.137; -171.752
513.510;    1.339; -479.144; -671.741
513.793;    5.684; -485.140; -435.747
514.076;  211.255;  -43.127;  -39.771
514.359;  180.576; -294.149; -135.732
514.642;   99.764; -442.142; -567.744
514.925; 1282.882;  581.860;  561.253
515.208; 1600.662; -498.134; -443.758
515.491; 1114.682; -276.133; -182.761
515.773;  610.544; -410.143; -337.742
516.056; 3560.134;  249.864;  409.246
516.339; 4559.840; -754.136; -652.755
516.622; 2924.259; -518.150; -488.730
516.904; 1800.954;  882.857;  975.257
517.187;  742.818; -730.138; -523.752
517.470;  559.653; -568.143; -510.743
517.752;  663.044; -624.136; -470.756
518.035;  509.600; -708.139; -725.749
518.318;  575.440; -799.136; -744.755
518.600; 3993.588; -300.132; -325.762
518.883; 5368.563;  310.858;   88.256
519.165; 2672.608; -585.138; -426.751
519.448;  635.087;  -61.132;  -19.762
519.730;  290.066; -573.126; -415.773
520.013;  511.377;  588.867;  664.240
520.295; 1143.270;  -94.134;  -15.759
520.578; 2404.506; -335.131; -305.764
520.860; 2698.787; -254.132;   56.238
521.143; 1526.947; -763.135; -584.756
521.425;  742.285; -251.125; -279.775
521.707; 1053.856; -622.127; -380.771
521.990; 2935.456; -199.127;  167.229
522.272; 3256.587; -116.140;   -4.748
522.554; 1439.345; -237.143; -157.742
522.836;  530.567;  -24.134;   99.241
523.119;  295.789; -496.148; -189.734
523.401;  218.617; -448.130; -314.766
523.683;   95.925; -865.137; -693.753
523.965;  475.715;  408.862;  260.248
524.247;  470.617;   54.878;  170.220
524.529;  310.470; -451.134; -367.759
524.812;  546.019;   -3.130;  191.234
525.094; 1371.914; -773.138; -631.751
525.376; 2126.199; -143.124;   78.223
525.658; 1357.435; -441.136; -339.754
525.940;   22.802; -805.131; -671.764
526.222;   56.841; -188.136;  -88.755
526.504;  177.498; -190.131;   32.237
526.786;  175.873; -960.133; -647.760
527.068;  456.207; -124.123;  -67.778
527.349;   89.630; -865.137; -774.754
527.631;  192.187; -137.132;   22.238
527.913;  170.455; -664.127; -450.771
528.195;  219.175; -761.125; -639.774
528.477;  378.662;  -93.134;  -30.758
528.759;  223.819; -648.130; -522.766
529.040;   76.305; -569.123; -293.778
529.322;   89.279; -235.125;  -10.774
529.604;  213.922;  -47.130;   93.233
529.886;  145.366; -546.126; -302.773
530.167;  179.810;  232.870;  192.235
530.449;   77.999;    1.853;   63.265
530.731;  -11.585; -572.122; -459.779
531.012;   80.446; -513.120; -216.784
531.294;  125.503; -118.116;  -43.792
531.575;  276.385;  290.875;  538.225
531.857;   81.055; -548.135; -266.757
532.138;  191.176; -113.141;   40.254
532.420;  270.749;  294.865;  403.244
532.701;  218.477; -722.133; -751.760
532.983;  546.881;  232.867;  182.239
533.264;  182.963; -243.126;  175.228
533.546;  -73.060; -491.136; -508.755
533.827;  108.572;  173.867;   -1.759
534.109;   54.255; -352.135;  -80.757
534.390;  114.693; -725.132; -582.762
534.671;  372.049; -270.135;  -82.756
534.953;  163.809; -751.123; -611.779
535.234;   13.881; -426.117; -255.789
535.515; -161.442; -891.119; -735.785
535.796;  -43.651; -431.128; -193.770
536.078; -217.902;-1050.124; -904.777
536.359;   16.710;  -22.123;    3.221
536.640;  -45.923; -480.125; -197.774
536.921;  273.030;  225.871;  143.232
537.202;  614.910;  -87.138;  -16.751
537.483;  741.106;  251.869;  377.236
537.764;  307.510;   17.870;   98.235
538.045; -105.039; -543.134; -371.758
538.326;  -58.067; -596.129; -447.768
538.607;    6.957; -686.127; -476.771
538.888;  296.033;   98.879;    5.218
