
Integration time [ms]: 100.000
Averaging Nr. [scans]: 40
Smoothing Nr. [pixels]: 0
Data measured with spectrometer [name]: 2101013U2
Wave   ;Sample   ;Dark     ;Reference
[nm]   ;[counts] ;[counts] ;[counts] 

394.013;   44.778; -450.257; -315.536
394.305;  165.676; -461.258; -419.536
394.596; 1084.773; -676.269; -527.514
394.887; 2802.615; -796.268; -654.518
395.178; 1086.945;  145.736;   11.476
395.470;   82.406; -210.263; -356.526
395.761;  173.755;  305.734;  394.479
396.052;  213.748; -545.284; -306.489
396.343;  220.993; -557.276; -454.503
396.634;   82.712; -200.279; -290.497
396.926;   86.637; -618.268; -565.517
397.217;  114.598;   11.725;  -17.504
397.508;   32.538; -366.273; -154.507
397.799;   33.912; -555.279; -571.497
398.090;  -12.994; -973.280; -902.495
398.381;  102.224;   11.708;  -11.473
398.672;  -24.825; -585.292; -742.473
398.963;   42.493; -348.279; -373.498
399.254;  112.884;   54.709; -209.475
399.545;  -49.049;-1017.266; -883.520
399.836;   41.582; -407.277; -343.501
400.127;   46.325; -205.295; -209.468
400.418;   51.658; -423.274; -392.506
400.709;   59.693; -359.281; -333.493
401.000;   34.288; -268.291; -309.476
401.290;   89.687;  225.698;  115.545
401.581;   65.456; -166.286; -228.485
401.872;   14.772; -542.298; -486.462
402.163;   54.368; -313.296; -252.467
402.454;   87.885; -123.291; -163.475
402.744;   57.534; -844.297; -813.465
403.035;  364.315; -226.293;  -86.471
403.326;  509.878; -366.292; -384.474
403.617;  331.542;  204.701;  165.539
403.907;  236.529; -593.283; -679.490
404.198; 2484.041; -545.307; -599.446
404.489; 6349.859; -618.283; -588.491
404.779; 2089.665; -618.302; -660.456
405.070;  221.844;  -67.304; -174.451
405.360;  333.767; -259.293; -238.472
405.651;  366.301;  125.699;   98.542
405.942;  157.351;  209.714;  127.516
406.232;  196.866; -432.285; -413.487
406.523;  424.710;  641.706;  758.530
406.813;   78.854; -579.286; -644.484
407.104;  294.548;  261.708;  144.527
407.394;  138.543; -604.299; -591.462
407.685;  144.890;  336.715;  222.513
407.975;   59.158; -400.283; -382.490
408.265;  117.074; -134.289; -190.478
408.556;   45.206; -472.291; -459.475
408.846;  150.511;  474.706;  429.530
409.137;   88.057;   -1.288; -216.480
409.427;   43.991; -193.285; -271.487
409.717;   27.241; -776.273; -692.508
410.007;  124.534;    4.715; -170.486
410.298;   86.978; -360.295; -342.469
410.588;   54.013; -495.285; -510.486
410.878;    5.343; -792.287; -873.482
411.168;  104.900; -481.298; -478.463
411.459;  105.427; -295.283; -242.489
411.749;   52.755; -609.292; -507.474
412.039;   42.331; -755.289; -386.480
412.329;  190.825;   40.722;  132.501
412.619;  182.454;  -62.286; -148.485
412.909;  362.027;  639.711;  594.521
413.199;  303.181; -130.280; -251.495
413.490;  366.517;  521.710;  352.523
413.780;  126.910;-1013.279; -913.496
414.070;  325.769;  -46.276;  235.497
414.360;  345.721; -729.278; -666.498
414.650;  392.789; -726.288; -688.482
414.940;  526.710; -538.280; -441.496
415.230;  936.136;   50.712;   74.519
415.520; 6176.947;  155.730;   66.486
415.809;24302.518; -305.281; -125.493
416.099;19050.909; -388.277; -229.501
416.389; 5333.606;  435.726;  236.494
416.679; 3176.160;   91.738;   85.473
416.969;  542.023; -527.287; -503.483
417.259;  591.862;  341.721;  171.503
417.549;  685.092;  522.718;  318.508
417.838; 1699.789; -205.268; -147.518
418.128; 5653.723;  650.710;  492.522
418.418; 4764.198; -491.272; -579.509
418.708; 3206.206;    9.726;  -48.506
418.997;11971.477; -474.275; -480.505
419.287;12570.063; -733.273; -790.507
419.577;11987.777; -160.283; -123.489
419.866;39420.282; -588.277; -498.501
420.156;40240.418; -242.270;  -55.513
420.446; 7258.452; -112.263;  -26.526
420.735;  810.062; -376.271; -446.512
421.025;  829.120; 1830.722;  315.502
421.314;  613.235; -203.271; -226.512
421.604; 1185.307;   89.732;  233.484
421.893;  704.857; -705.271; -602.511
422.183;  221.028; -487.263; -461.526
422.472;  350.033;  -36.271; -107.511
422.762;  438.382; -416.266; -379.521
423.051;  236.945; -916.276; -916.503
423.341;  299.664; -491.273; -439.507
423.630;  392.263; -121.265;   15.477
423.919;  372.251;   58.725;   49.495
424.209;  377.633;  -31.263;   56.473
424.498;  504.362;   68.732;  161.483
424.787; 1082.518; -535.267; -601.518
425.077; 3352.712;   34.735;   29.478
425.366; 4592.364; -734.262; -744.528
425.655;10213.090;  639.727;  259.493
425.945;22987.317; -313.247; -268.554
426.234;12841.861;  117.741;  300.467
426.523; 5165.791;  -86.259; -350.534
426.812; 7108.028;  107.734;  159.480
427.101;10510.353; -127.269; -323.515
427.390;13215.872;  -55.270;  -86.514
427.680; 2817.936; -624.257; -411.538
427.969;  459.297; -330.255; -301.540
428.258;  290.803; -385.257; -477.536
428.547;  515.952;  449.728;  397.490
428.836; 1129.513; -421.253; -398.543
429.125; 1603.768; -199.259;  -72.534
429.414;  765.311; -330.251; -294.548
429.703; 3155.911; -231.251; -213.548
429.992; 9571.014; -938.250; -828.549
430.281; 6308.646; -397.264; -331.524
430.570;  561.451;  -21.252;   32.454
430.859;  483.566;  279.741;  352.466
431.148;  409.663;  636.752;  631.446
431.437;  273.301;  391.748;  367.454
431.725;  139.979; -544.257; -481.536
432.014;  115.470; -845.253; -756.545
432.303;  376.688; -149.239; -105.569
432.592;  557.977; -460.263; -178.525
432.881; 1048.789; -601.248; -437.554
433.169; 6415.748; -343.255;  -61.540
433.458;13041.897;  445.765;  540.424
433.747; 5460.044; -397.261; -289.529
434.036;  842.289; -275.242; -280.564
434.324; 2098.601; -395.249; -379.551
434.613; 3724.233;   40.757;  159.437
434.902; 1223.404;  333.760;  439.433
435.190;  456.837;   75.761;  295.431
435.479;  268.740;  -52.245;   83.441
435.767;   86.873; -411.244; -427.561
436.056;  194.760; -340.242; -294.563
436.345;  353.806; -372.240; -223.568
436.633;  375.522;   60.750;  383.450
436.922;  215.883;  208.760;  414.432
437.210;  462.912; -194.236;    1.426
437.499; 1463.445; -583.235; -432.576
437.787; 1660.387; -339.236;  -10.574
438.075;  431.343;   56.761;  162.430
438.364;  580.320;  -44.238;  250.429
438.652;  344.425; -286.226; -138.592
438.941;  117.589;    3.770;  269.415
439.229;  -18.002; -665.252; -466.545
439.517;   23.954; -160.234;  -85.577
439.806;  -11.060; -501.225; -290.595
440.094;  168.636;  377.766;  650.421
440.382;  133.015; -653.233; -302.580
440.670;  148.620; -361.235; -285.576
440.959;   17.058; -347.223; -170.599
441.247;   71.150; -151.229; -109.587
441.535;   85.077; -266.235;   31.423
441.823;   21.633; -497.234; -305.578
442.111;  171.429;  173.771;  327.412
442.400;  438.164; -628.245; -335.559
442.688; 1135.011; -111.234; -620.579
442.976;  765.945; -786.213; -450.617
443.264;   65.272; -324.224; -364.597
443.552;   82.101; -258.226;   51.408
443.840;  149.126;  602.765;  876.423
444.128;   98.489;  265.767;  269.420
444.416;   -9.918; -694.228; -312.588
444.704;   16.537; -465.219;  -92.605
444.992;   66.554;   -0.226;  240.407
445.280;   42.265; -517.230;  -94.585
445.568;   25.174; -694.212; -396.618
445.856;  286.971; -174.221;  357.398
446.143;  616.308;  -54.220;   -7.604
446.431;  536.186;  -25.228;  625.411
446.719;  225.931;  489.783;  675.391
447.007;  174.709;  481.769;  705.416
447.295;  162.005;  597.777;  871.402
447.583;   63.448; -464.229;  -34.587
447.870;  124.293; -434.221; -202.601
448.158;  344.863; -104.230;  129.415
448.446;  266.834; -800.219; -338.604
448.733;  156.473;   13.776;  269.403
449.021;  238.148;   60.788;  341.382
449.309;  155.938; -296.210;  208.379
449.596;  211.803;  128.783;   59.392
449.884;  132.587; -571.222; -325.600
450.172;  144.166; -756.227; -406.590
450.459;  456.328;  645.786;  780.387
450.747; 2483.976; -411.218; -147.608
451.034; 8022.637;  493.772;  889.411
451.322; 6654.506; -413.214; -170.614
451.609;  553.400;  292.777;  508.403
451.897;  582.926; -550.203; -183.634
452.184; 1837.880; -622.223; -400.598
452.472; 1754.759;   97.792;  269.375
452.759;  341.935;  512.781;  864.395
453.047;   97.746; -407.212; -125.617
453.334;   54.493; -732.219; -216.606
453.621;   62.134; -438.214; -161.615
453.909;  104.393;   13.796;  384.368
454.196;   91.988; -299.199; -123.641
454.483;  201.964;  317.798;  540.364
454.771;  118.262; -215.208;  196.374
455.058;   26.991; -316.207;  102.374
455.345;  114.418;   71.807;  344.347
455.632;   82.919; -128.207;  235.373
455.919;   51.035;  -82.196;  182.354
456.207;  -73.458; -774.198; -450.642
456.494;  -27.799; -475.200;  -66.639
456.781;    6.384; -399.202; -198.635
457.068;   47.025; -253.206;  -29.628
457.355;  -24.324; -698.206; -401.629
457.642;  -19.193; -552.205; -290.630
457.929;   -0.116; -778.194; -417.651
458.216;   54.996; -575.212; -354.617
458.503;  244.664; -173.193;  -19.652
458.790;  245.485; -864.208; -630.625
459.077;  258.589;  -77.202;  110.364
459.364;  835.052; -350.195; -210.649
459.651; 1742.273;  -46.206;  220.372
459.938;  811.751; -864.209; -665.623
460.225;  116.317;  132.799;  276.363
460.512;  -54.318; -836.197; -688.645
460.799;   94.725;  -32.218;  320.392
461.086;   72.180; -370.200; -251.640
461.372;   16.543; -509.198; -279.642
461.659;   85.237; -165.196;  108.354
461.946;   26.962; -445.193;  -54.651
462.233;  224.128;  842.800;  888.361
462.519;  343.175; -814.201; -464.639
462.806; 1037.083; -768.197; -497.645
463.093;  917.033; -445.191;  -66.656
463.380;  -31.951; -920.186; -824.664
463.666;   34.460; -259.197;  -18.646
463.953;   87.672; -406.195; -243.648
464.239;  197.047; -173.195;  -77.648
464.526;  380.757;  413.806;  743.350
464.813;  303.394; -565.190; -304.658
465.099;  340.113;  606.807;  607.348
465.386;  301.667;  903.807;  921.348
465.672;    4.708; -694.197; -522.645
465.959;   -4.413; -598.188; -520.662
466.245;    3.867; -468.193; -359.652
466.532;   71.020; -109.195;   63.352
466.818;   40.773; -357.186; -216.664
467.104;  -19.987; -488.182; -415.672
467.391;  -28.229; -628.189; -459.658
467.677;   22.652; -289.186;    9.335
467.964;   -6.297; -682.189; -471.660
468.250;   44.305; -331.186; -160.665
468.536;   67.672;   90.811;  180.341
468.822;  -34.633; -821.184; -574.668
469.109;  138.169;  351.827;  471.311
469.395;  184.752;  729.808;  787.346
469.681;  178.675;   46.811;  156.341
469.967; 1263.380; -699.188; -382.660
470.254; 2777.163; -494.188; -306.662
470.540; 1799.860; -601.196; -476.646
470.826;  248.524; -488.181; -397.675
471.112;  298.520;  288.816;  113.331
471.398;   92.275; -253.183;  -58.670
471.684;   19.753; -626.177; -447.680
471.970;   -5.172; -918.180; -981.675
472.256;   23.151; -521.192; -441.654
472.542;    6.880; -499.171; -434.691
472.828;    4.859; -743.182; -607.672
473.114;   24.398; -380.166; -283.700
473.400;   -0.081; -504.175; -293.684
473.686;   19.429; -452.166; -400.701
473.972;   37.809; -230.174; -131.687
474.258;  -44.231; -925.173; -843.689
474.544;  212.794; -183.178;   -2.679
474.830;  337.196;  -65.175;   45.316
475.116;  528.471; -123.190; -196.658
475.401;  700.056; -558.180; -467.676
475.687;  222.230; -725.180; -718.676
475.973;  -16.558; -673.181; -770.673
476.259;  233.373;  736.825;  764.315
476.544;  367.511; -539.176; -437.682
476.830;  866.101; -398.172; -322.690
477.116;  788.259; -430.177; -336.682
477.401;  136.605;  346.820;  358.324
477.687;  -26.006; -289.175; -405.684
477.973;   43.971;   21.819;   28.326
478.258;   -2.475; -448.163; -348.706
478.544;   46.335;   21.815;   61.334
478.829;  -72.390; -818.171; -738.692
479.115;  -60.100; -749.172; -651.690
479.401;   -9.871; -444.174; -449.686
479.686;   30.354; -253.180;  -74.676
479.972;  -34.151; -886.178; -776.680
480.257;   29.224; -258.166;  -65.700
480.542;   -6.536; -614.170; -469.693
480.828;  224.342; 1288.824; 1392.317
481.113;  -51.210; -464.176; -426.683
481.399;  -15.552; -236.161; -202.711
481.684;  -52.801; -620.166; -462.700
481.969;    1.337; -158.159;  -73.713
482.255;  -17.350; -439.169; -285.695
482.540;   -1.925; -569.178; -441.680
482.825;    2.644; -395.187; -404.663
483.110;  105.053;  -85.169; -105.696
483.396;  213.758; -840.157; -652.718
483.681;  515.109;  543.826;  730.313
483.966;  176.506; -696.160; -700.712
484.251;   -8.217; -404.174; -310.687
484.536;  -16.091; -356.165; -378.703
484.822;    5.211; -205.173; -218.687
485.107;  -39.054; -599.152; -502.726
485.392;  122.515;  662.836;  541.296
485.677;   69.013;  354.832;  163.302
485.962;  101.806;  160.843;  270.283
486.247;   80.707;  -14.162;   -8.707
486.532;   30.325; -178.166; -325.701
486.817;  148.593;  381.839;  431.291
487.102;  109.529; -453.154; -514.722
487.387;  703.310; -637.156; -652.718
487.672; 1251.470; -154.164;  -38.705
487.957;  798.100; -394.160; -286.711
488.241;  203.888; -290.150; -314.729
488.526;  788.472; -280.152; -148.726
488.811; 1275.927; -881.177; -818.680
489.096;  962.132; -666.154; -702.723
489.381;  519.669;    3.847;  162.275
489.666;  395.673; -428.161; -510.710
489.950;  182.960;  558.846;  627.277
490.235;  -35.767; -480.151; -458.728
490.520;  -45.378; -756.161; -723.710
490.804;  -65.963; -827.156; -736.719
491.089;    2.128; -469.149; -299.732
491.374;   29.019; -132.164;  -75.704
491.658;   -7.085; -817.147; -717.735
491.943;  148.902; -657.152; -609.727
492.227;  243.550; -178.155;  -38.721
492.512;   41.180; -294.157; -341.717
492.797;  -78.803; -713.149; -716.731
493.081;  -51.283; -588.147; -598.735
493.366;  -61.402; -751.161; -635.711
493.650;  209.245;  831.859;  917.254
493.935;   34.064; -648.147; -447.734
494.219;  -45.943; -778.142; -687.743
494.503;  -51.683; -585.150; -487.730
494.788;   40.997;   46.842;   74.285
495.072;  105.764;  184.850;  434.271
495.356;  176.856; -463.148; -343.733
495.641;  456.924; -812.146; -736.736
495.925;  415.617; -976.156; -903.719
496.209;   22.678; -599.149; -451.732
496.494;  -57.367; -763.142; -544.744
496.778;    9.404; -364.154; -360.722
497.062;  -62.984; -819.156; -627.719
497.346;  -38.624; -869.160; -640.711
497.631;  151.360;  580.852;  560.266
497.915;   77.584;  -64.145;  175.261
498.199;   44.458; -341.157; -277.718
498.483;   13.121; -562.152; -508.725
498.767;  199.965;  301.850;  300.271
499.051;  183.625; -126.149; -100.732
499.335;   26.824; -693.149; -739.731
499.619;  -48.729; -381.129; -423.767
499.903;   11.299; -272.155;  -65.721
500.187;   20.111; -588.153; -316.724
500.471;   10.751; -796.152; -595.727
500.755;  109.247;   62.839;  -96.710
501.039;    7.299; -270.155; -357.721
501.323;   82.547;  -21.141;  264.254
501.607;   14.075; -447.163; -503.706
501.891;  -19.991; -607.156; -512.718
502.174;  -40.079; -726.144; -585.741
502.458;   53.605;   89.849;  370.273
502.742;   39.146; -180.138; -191.751
503.026;  112.739; -412.147; -254.734
503.310;  195.485; -437.159; -375.713
503.593;  114.115; -464.147; -325.735
503.877;  110.261; -232.133; -156.760
504.161;  159.489;    2.847;  -50.724
504.444;  132.499; -841.158; -710.716
504.728;  498.418; -487.164; -522.704
505.012;  749.937; -257.150;  -76.729
505.295;  547.648; -417.161; -212.711
505.579;  565.141; -256.156; -496.719
505.862;  816.606; -555.145; -333.738
506.146;  796.063; -681.159; -758.714
506.429;  424.488;  568.841;  461.286
506.713;   61.534; -732.151; -667.728
506.996;  326.904;   90.846;  295.278
507.280;  367.388; -633.165; -474.703
507.563;  259.547; -469.155; -261.721
507.847;  103.737; -423.153; -112.724
508.130;   87.124; -665.161; -456.711
508.413;  116.970; -758.167; -577.700
508.697;  265.420; -151.167;   12.300
508.980;  145.613; -422.153; -312.724
509.263;   -6.806; -466.155; -450.720
509.547;   33.212; -124.150;   82.271
509.830;   36.301; -172.160;  140.289
510.113;   78.166;  128.844;  298.281
510.396;   22.669; -530.152; -300.725
510.680;  116.532; -818.145; -812.738
510.963;  497.883;  184.846;  180.277
511.246;  407.744; -493.150; -357.730
511.529;  254.412; -482.145;  -83.739
511.812;  388.157; -250.134;   10.241
512.095;  302.056; -740.151; -396.728
512.378;   68.894; -317.147; -245.736
512.661;   19.128; -703.137; -623.753
512.944;   17.260; -750.142; -637.744
513.227;   77.601; -170.137; -171.752
513.510;   25.320; -479.144; -671.741
513.793;   30.426; -485.140; -435.747
514.076;  123.491;  -43.127;  -39.771
514.359;  119.404; -294.149; -135.732
514.642;   82.412; -442.142; -567.744
514.925;  782.625;  581.860;  561.253
515.208; 1081.929; -498.134; -443.758
515.491;  721.167; -276.133; -182.761
515.773;  404.324; -410.143; -337.742
516.056; 2226.660;  249.864;  409.246
516.339; 2962.814; -754.136; -652.755
516.622; 1866.917; -518.150; -488.730
516.904; 1076.831;  882.857;  975.257
517.187;  467.249; -730.138; -523.752
517.470;  406.030; -568.143; -510.743
517.752;  441.591; -624.136; -470.756
518.035;  373.262; -708.139; -725.749
518.318;  412.039; -799.136; -744.755
518.600; 2605.721; -300.132; -325.762
518.883; 3598.562;  310.858;   88.256
519.165; 1728.592; -585.138; -426.751
519.448;  373.921;  -61.132;  -19.762
519.730;  184.674; -573.126; -415.773
520.013;  283.189;  588.867;  664.240
520.295;  694.809;  -94.134;  -15.759
520.578; 1512.534; -335.131; -305.764
520.860; 1756.521; -254.132;   56.238
521.143;  957.468; -763.135; -584.756
521.425;  488.837; -251.125; -279.775
521.707;  697.167; -622.127; -380.771
521.990; 1881.592; -199.127;  167.229
522.272; 2142.678; -116.140;   -4.748
522.554;  909.950; -237.143; -157.742
522.836;  312.732;  -24.134;   99.241
523.119;  197.012; -496.148; -189.734
523.401;  152.915; -448.130; -314.766
523.683;   89.829; -865.137; -693.753
523.965;  290.847;  408.862;  260.248
524.247;  314.433;   54.878;  170.220
524.529;  206.934; -451.134; -367.759
524.812;  355.342;   -3.130;  191.234
525.094;  908.671; -773.138; -631.751
525.376; 1446.971; -143.124;   78.223
525.658;  896.411; -441.136; -339.754
525.940;   30.805; -805.131; -671.764
526.222;   32.764; -188.136;  -88.755
526.504;   99.778; -190.131;   32.237
526.786;  134.786; -960.133; -647.760
527.068;  270.376; -124.123;  -67.778
527.349;   98.182; -865.137; -774.754
527.631;  115.170; -137.132;   22.238
527.913;  136.791; -664.127; -450.771
528.195;  191.230; -761.125; -639.774
528.477;  261.404;  -93.134;  -30.758
528.759;  136.317; -648.130; -522.766
529.040;   55.625; -569.123; -293.778
529.322;   55.032; -235.125;  -10.774
529.604;  131.569;  -47.130;   93.233
529.886;  104.899; -546.126; -302.773
530.167;  117.061;  232.870;  192.235
530.449;   37.094;    1.853;   63.265
530.731;   24.207; -572.122; -459.779
531.012;   67.553; -513.120; -216.784
531.294;   68.666; -118.116;  -43.792
531.575;  160.637;  290.875;  538.225
531.857;   50.099; -548.135; -266.757
532.138;   97.970; -113.141;   40.254
532.420;  152.670;  294.865;  403.244
532.701;  184.939; -722.133; -751.760
532.983;  318.392;  232.867;  182.239
533.264;   99.672; -243.126;  175.228
533.546;  -46.436; -491.136; -508.755
533.827;   28.785;  173.867;   -1.759
534.109;   19.224; -352.135;  -80.757
534.390;   79.875; -725.132; -582.762
534.671;  246.020; -270.135;  -82.756
534.953;  144.653; -751.123; -611.779
535.234;   26.352; -426.117; -255.789
535.515;  -92.464; -891.119; -735.785
535.796;  -29.613; -431.128; -193.770
536.078; -128.555;-1050.124; -904.777
536.359;   -7.997;  -22.123;    3.221
536.640;  -19.644; -480.125; -197.774
536.921;  146.350;  225.871;  143.232
537.202;  374.468;  -87.138;  -16.751
537.483;  478.858;  251.869;  377.236
537.764;  177.686;   17.870;   98.235
538.045;  -42.897; -543.134; -371.758
538.326;  -36.424; -596.129; -447.768
538.607;    4.018; -686.127; -476.771
538.888;  196.994;   98.879;    5.218
