
Integration time [ms]: 100.000
Averaging Nr. [scans]: 40
Smoothing Nr. [pixels]: 0
Data measured with spectrometer [name]: 2101013U2
Wave   ;Sample   ;Dark     ;Reference
[nm]   ;[counts] ;[counts] ;[counts] 

394.013;   53.785; -450.257; -315.536
394.305;  186.632; -461.258; -419.536
394.596; 1617.479; -676.269; -527.514
394.887; 4245.725; -796.268; -654.518
395.178; 1524.988;  145.736;   11.476
395.470;   85.177; -210.263; -356.526
395.761;  148.918;  305.734;  394.479
396.052;  107.399; -545.284; -306.489
396.343;  107.611; -557.276; -454.503
396.634;   44.372; -200.279; -290.497
396.926;   34.547; -618.268; -565.517
397.217;   77.466;   11.725;  -17.504
397.508;   40.836; -366.273; -154.507
397.799;   21.722; -555.279; -571.497
398.090;    7.690; -973.280; -902.495
398.381;   70.982;   11.708;  -11.473
398.672;   -6.192; -585.292; -742.473
398.963;   30.905; -348.279; -373.498
399.254;   84.069;   54.709; -209.475
399.545;  -15.136;-1017.266; -883.520
399.836;   44.672; -407.277; -343.501
400.127;   48.927; -205.295; -209.468
400.418;   32.454; -423.274; -392.506
400.709;   51.224; -359.281; -333.493
401.000;   42.374; -268.291; -309.476
401.290;  104.324;  225.698;  115.545
401.581;   72.203; -166.286; -228.485
401.872;   52.043; -542.298; -486.462
402.163;   65.093; -313.296; -252.467
402.454;  100.070; -123.291; -163.475
402.744;   51.532; -844.297; -813.465
403.035;  268.571; -226.293;  -86.471
403.326;  336.237; -366.292; -384.474
403.617;  338.261;  204.701;  165.539
403.907;  361.506; -593.283; -679.490
404.198; 3636.117; -545.307; -599.446
404.489; 9263.688; -618.283; -588.491
404.779; 2608.828; -618.302; -660.456
405.070;  302.051;  -67.304; -174.451
405.360;  513.673; -259.293; -238.472
405.651;  466.592;  125.699;   98.542
405.942;  172.522;  209.714;  127.516
406.232;  111.840; -432.285; -413.487
406.523;  258.914;  641.706;  758.530
406.813;   48.050; -579.286; -644.484
407.104;  243.830;  261.708;  144.527
407.394;   95.037; -604.299; -591.462
407.685;  165.239;  336.715;  222.513
407.975;   83.886; -400.283; -382.490
408.265;  135.263; -134.289; -190.478
408.556;   60.916; -472.291; -459.475
408.846;  187.540;  474.706;  429.530
409.137;  113.673;   -1.288; -216.480
409.427;   86.015; -193.285; -271.487
409.717;   58.890; -776.273; -692.508
410.007;  147.207;    4.715; -170.486
410.298;  132.755; -360.295; -342.469
410.588;  106.962; -495.285; -510.486
410.878;   77.412; -792.287; -873.482
411.168;  127.246; -481.298; -478.463
411.459;  148.304; -295.283; -242.489
411.749;  105.039; -609.292; -507.474
412.039;   96.346; -755.289; -386.480
412.329;  234.863;   40.722;  132.501
412.619;  225.750;  -62.286; -148.485
412.909;  391.566;  639.711;  594.521
413.199;  355.015; -130.280; -251.495
413.490;  414.230;  521.710;  352.523
413.780;  229.620;-1013.279; -913.496
414.070;  409.137;  -46.276;  235.497
414.360;  424.309; -729.278; -666.498
414.650;  567.157; -726.288; -688.482
414.940;  769.645; -538.280; -441.496
415.230; 1279.253;   50.712;   74.519
415.520; 8813.053;  155.730;   66.486
415.809;35600.424; -305.281; -125.493
416.099;26581.550; -388.277; -229.501
416.389; 7823.726;  435.726;  236.494
416.679; 4496.481;   91.738;   85.473
416.969;  801.393; -527.287; -503.483
417.259;  643.923;  341.721;  171.503
417.549;  919.572;  522.718;  318.508
417.838; 2426.749; -205.268; -147.518
418.128; 8438.436;  650.710;  492.522
418.418; 6819.623; -491.272; -579.509
418.708; 4557.877;    9.726;  -48.506
418.997;17971.047; -474.275; -480.505
419.287;18210.160; -733.273; -790.507
419.577;17675.428; -160.283; -123.489
419.866;56805.423; -588.277; -498.501
420.156;55307.698; -242.270;  -55.513
420.446; 9191.372; -112.263;  -26.526
420.735;  929.991; -376.271; -446.512
421.025;  944.608; 1830.722;  315.502
421.314;  595.289; -203.271; -226.512
421.604;  815.940;   89.732;  233.484
421.893;  492.184; -705.271; -602.511
422.183;  302.347; -487.263; -461.526
422.472;  444.561;  -36.271; -107.511
422.762;  426.797; -416.266; -379.521
423.051;  288.938; -916.276; -916.503
423.341;  355.087; -491.273; -439.507
423.630;  425.804; -121.265;   15.477
423.919;  438.321;   58.725;   49.495
424.209;  509.879;  -31.263;   56.473
424.498;  648.571;   68.732;  161.483
424.787; 1489.579; -535.267; -601.518
425.077; 4390.127;   34.735;   29.478
425.366; 4833.836; -734.262; -744.528
425.655;13346.688;  639.727;  259.493
425.945;34018.745; -313.247; -268.554
426.234;17897.989;  117.741;  300.467
426.523; 7567.920;  -86.259; -350.534
426.812;10201.591;  107.734;  159.480
427.101;15104.661; -127.269; -323.515
427.390;17679.728;  -55.270;  -86.514
427.680; 2587.395; -624.257; -411.538
427.969;  561.758; -330.255; -301.540
428.258;  393.134; -385.257; -477.536
428.547;  540.228;  449.728;  397.490
428.836;  818.928; -421.253; -398.543
429.125; 1099.797; -199.259;  -72.534
429.414;  848.731; -330.251; -294.548
429.703; 4662.081; -231.251; -213.548
429.992;14293.260; -938.250; -828.549
430.281; 8992.913; -397.264; -331.524
430.570;  635.119;  -21.252;   32.454
430.859;  480.945;  279.741;  352.466
431.148;  475.365;  636.752;  631.446
431.437;  359.544;  391.748;  367.454
431.725;  226.686; -544.257; -481.536
432.014;  244.987; -845.253; -756.545
432.303;  436.109; -149.239; -105.569
432.592;  602.671; -460.263; -178.525
432.881; 1468.317; -601.248; -437.554
433.169; 9647.884; -343.255;  -61.540
433.458;19483.401;  445.765;  540.424
433.747; 7626.193; -397.261; -289.529
434.036;  976.604; -275.242; -280.564
434.324; 2978.651; -395.249; -379.551
434.613; 5305.171;   40.757;  159.437
434.902; 1516.847;  333.760;  439.433
435.190;  335.932;   75.761;  295.431
435.479;  218.473;  -52.245;   83.441
435.767;  121.658; -411.244; -427.561
436.056;  243.549; -340.242; -294.563
436.345;  521.749; -372.240; -223.568
436.633;  473.670;   60.750;  383.450
436.922;  229.827;  208.760;  414.432
437.210;  289.263; -194.236;    1.426
437.499;  656.048; -583.235; -432.576
437.787;  744.163; -339.236;  -10.574
438.075;  241.314;   56.761;  162.430
438.364;  253.292;  -44.238;  250.429
438.652;  142.697; -286.226; -138.592
438.941;  105.902;    3.770;  269.415
439.229;   14.316; -665.252; -466.545
439.517;   55.059; -160.234;  -85.577
439.806;   20.166; -501.225; -290.595
440.094;  162.793;  377.766;  650.421
440.382;   64.123; -653.233; -302.580
440.670;   73.048; -361.235; -285.576
440.959;    4.688; -347.223; -170.599
441.247;   53.141; -151.229; -109.587
441.535;   54.507; -266.235;   31.423
441.823;   14.840; -497.234; -305.578
442.111;  164.547;  173.771;  327.412
442.400;  339.148; -628.245; -335.559
442.688;  632.868; -111.234; -620.579
442.976;  343.371; -786.213; -450.617
443.264;   68.600; -324.224; -364.597
443.552;   87.373; -258.226;   51.408
443.840;  146.355;  602.765;  876.423
444.128;  109.122;  265.767;  269.420
444.416;   -2.275; -694.228; -312.588
444.704;   45.599; -465.219;  -92.605
444.992;   78.202;   -0.226;  240.407
445.280;   29.103; -517.230;  -94.585
445.568;   11.251; -694.212; -396.618
445.856;  152.205; -174.221;  357.398
446.143;  316.295;  -54.220;   -7.604
446.431;  264.454;  -25.228;  625.411
446.719;  187.523;  489.783;  675.391
447.007;  151.046;  481.769;  705.416
447.295;  186.734;  597.777;  871.402
447.583;   98.789; -464.229;  -34.587
447.870;  128.126; -434.221; -202.601
448.158;  281.377; -104.230;  129.415
448.446;  168.396; -800.219; -338.604
448.733;  172.776;   13.776;  269.403
449.021;  207.450;   60.788;  341.382
449.309;  182.919; -296.210;  208.379
449.596;  249.544;  128.783;   59.392
449.884;  228.768; -571.222; -325.600
450.172;  296.786; -756.227; -406.590
450.459;  643.151;  645.786;  780.387
450.747; 3801.042; -411.218; -147.608
451.034;12209.556;  493.772;  889.411
451.322; 9748.904; -413.214; -170.614
451.609;  738.278;  292.777;  508.403
451.897;  902.747; -550.203; -183.634
452.184; 2797.584; -622.223; -400.598
452.472; 2434.745;   97.792;  269.375
452.759;  360.297;  512.781;  864.395
453.047;  112.447; -407.212; -125.617
453.334;   68.957; -732.219; -216.606
453.621;   54.682; -438.214; -161.615
453.909;  126.037;   13.796;  384.368
454.196;  127.743; -299.199; -123.641
454.483;  255.988;  317.798;  540.364
454.771;  166.974; -215.208;  196.374
455.058;   68.178; -316.207;  102.374
455.345;  159.411;   71.807;  344.347
455.632;  148.982; -128.207;  235.373
455.919;   73.896;  -82.196;  182.354
456.207;  -24.827; -774.198; -450.642
456.494;   20.803; -475.200;  -66.639
456.781;   39.732; -399.202; -198.635
457.068;   77.115; -253.206;  -29.628
457.355;    5.491; -698.206; -401.629
457.642;   19.198; -552.205; -290.630
457.929;   47.850; -778.194; -417.651
458.216;  128.848; -575.212; -354.617
458.503;  397.181; -173.193;  -19.652
458.790;  417.471; -864.208; -630.625
459.077;  414.988;  -77.202;  110.364
459.364; 1232.016; -350.195; -210.649
459.651; 2582.287;  -46.206;  220.372
459.938; 1156.834; -864.209; -665.623
460.225;  138.367;  132.799;  276.363
460.512;  -14.933; -836.197; -688.645
460.799;  151.665;  -32.218;  320.392
461.086;  128.733; -370.200; -251.640
461.372;   40.424; -509.198; -279.642
461.659;   86.322; -165.196;  108.354
461.946;   51.804; -445.193;  -54.651
462.233;  230.155;  842.800;  888.361
462.519;  513.001; -814.201; -464.639
462.806; 1581.893; -768.197; -497.645
463.093; 1324.329; -445.191;  -66.656
463.380;   22.130; -920.186; -824.664
463.666;   62.820; -259.197;  -18.646
463.953;  134.460; -406.195; -243.648
464.239;  280.485; -173.195;  -77.648
464.526;  403.748;  413.806;  743.350
464.813;  323.744; -565.190; -304.658
465.099;  331.355;  606.807;  607.348
465.386;  297.635;  903.807;  921.348
465.672;   43.743; -694.197; -522.645
465.959;   69.866; -598.188; -520.662
466.245;   30.110; -468.193; -359.652
466.532;   73.357; -109.195;   63.352
466.818;   48.130; -357.186; -216.664
467.104;   10.805; -488.182; -415.672
467.391;   -9.379; -628.189; -459.658
467.677;   36.160; -289.186;    9.335
467.964;   13.404; -682.189; -471.660
468.250;   74.288; -331.186; -160.665
468.536;   86.773;   90.811;  180.341
468.822;    0.328; -821.184; -574.668
469.109;  175.179;  351.827;  471.311
469.395;  225.247;  729.808;  787.346
469.681;  256.601;   46.811;  156.341
469.967; 1831.132; -699.188; -382.660
470.254; 4067.917; -494.188; -306.662
470.540; 2514.670; -601.196; -476.646
470.826;  359.218; -488.181; -397.675
471.112;  414.632;  288.816;  113.331
471.398;  113.838; -253.183;  -58.670
471.684;   74.653; -626.177; -447.680
471.970;   38.748; -918.180; -981.675
472.256;   75.521; -521.192; -441.654
472.542;   61.093; -499.171; -434.691
472.828;   52.275; -743.182; -607.672
473.114;   59.672; -380.166; -283.700
473.400;   42.574; -504.175; -293.684
473.686;   58.330; -452.166; -400.701
473.972;   58.242; -230.174; -131.687
474.258;   -1.020; -925.173; -843.689
474.544;  328.443; -183.178;   -2.679
474.830;  496.076;  -65.175;   45.316
475.116;  782.721; -123.190; -196.658
475.401; 1036.126; -558.180; -467.676
475.687;  274.500; -725.180; -718.676
475.973;   -6.815; -673.181; -770.673
476.259;  256.329;  736.825;  764.315
476.544;  546.488; -539.176; -437.682
476.830; 1325.438; -398.172; -322.690
477.116; 1130.662; -430.177; -336.682
477.401;  186.775;  346.820;  358.324
477.687;   -0.101; -289.175; -405.684
477.973;   48.489;   21.819;   28.326
478.258;   25.880; -448.163; -348.706
478.544;   53.369;   21.815;   61.334
478.829;  -51.350; -818.171; -738.692
479.115;  -29.112; -749.172; -651.690
479.401;    8.411; -444.174; -449.686
479.686;   66.924; -253.180;  -74.676
479.972;    6.824; -886.178; -776.680
480.257;   77.349; -258.166;  -65.700
480.542;   45.805; -614.170; -469.693
480.828;  275.497; 1288.824; 1392.317
481.113;  -15.831; -464.176; -426.683
481.399;   20.134; -236.161; -202.711
481.684;  -30.727; -620.166; -462.700
481.969;   22.601; -158.159;  -73.713
482.255;    9.818; -439.169; -285.695
482.540;   30.625; -569.178; -441.680
482.825;   39.599; -395.187; -404.663
483.110;  150.322;  -85.169; -105.696
483.396;  374.977; -840.157; -652.718
483.681;  742.592;  543.826;  730.313
483.966;  285.243; -696.160; -700.712
484.251;   20.641; -404.174; -310.687
484.536;   39.111; -356.165; -378.703
484.822;   60.244; -205.173; -218.687
485.107;   -3.776; -599.152; -502.726
485.392;  134.668;  662.836;  541.296
485.677;   88.484;  354.832;  163.302
485.962;  126.424;  160.843;  270.283
486.247;  125.265;  -14.162;   -8.707
486.532;   77.700; -178.166; -325.701
486.817;  188.852;  381.839;  431.291
487.102;  153.029; -453.154; -514.722
487.387; 1030.555; -637.156; -652.718
487.672; 1873.249; -154.164;  -38.705
487.957; 1164.161; -394.160; -286.711
488.241;  330.820; -290.150; -314.729
488.526; 1142.051; -280.152; -148.726
488.811; 1919.352; -881.177; -818.680
489.096; 1302.457; -666.154; -702.723
489.381;  677.597;    3.847;  162.275
489.666;  634.609; -428.161; -510.710
489.950;  219.086;  558.846;  627.277
490.235;  -20.186; -480.151; -458.728
490.520;  -29.242; -756.161; -723.710
490.804;  -18.493; -827.156; -736.719
491.089;   36.840; -469.149; -299.732
491.374;   50.998; -132.164;  -75.704
491.658;    2.904; -817.147; -717.735
491.943;  132.706; -657.152; -609.727
492.227;  228.973; -178.155;  -38.721
492.512;   39.949; -294.157; -341.717
492.797;  -44.368; -713.149; -716.731
493.081;  -28.543; -588.147; -598.735
493.366;  -16.816; -751.161; -635.711
493.650;  240.048;  831.859;  917.254
493.935;   85.528; -648.147; -447.734
494.219;  -18.468; -778.142; -687.743
494.503;  -17.624; -585.150; -487.730
494.788;   64.888;   46.842;   74.285
495.072;  135.347;  184.850;  434.271
495.356;  240.394; -463.148; -343.733
495.641;  516.015; -812.146; -736.736
495.925;  457.413; -976.156; -903.719
496.209;   29.564; -599.149; -451.732
496.494;  -24.217; -763.142; -544.744
496.778;   16.029; -364.154; -360.722
497.062;  -36.812; -819.156; -627.719
497.346;   21.613; -869.160; -640.711
497.631;  171.898;  580.852;  560.266
497.915;   92.078;  -64.145;  175.261
498.199;   49.177; -341.157; -277.718
498.483;   52.074; -562.152; -508.725
498.767;  264.448;  301.850;  300.271
499.051;  257.586; -126.149; -100.732
499.335;   79.609; -693.149; -739.731
499.619;  -25.627; -381.129; -423.767
499.903;   16.372; -272.155;  -65.721
500.187;   48.312; -588.153; -316.724
500.471;   45.281; -796.152; -595.727
500.755;   96.433;   62.839;  -96.710
501.039;   20.472; -270.155; -357.721
501.323;   70.725;  -21.141;  264.254
501.607;   34.955; -447.163; -503.706
501.891;   17.854; -607.156; -512.718
502.174;  -26.608; -726.144; -585.741
502.458;   72.085;   89.849;  370.273
502.742;   58.404; -180.138; -191.751
503.026;  187.502; -412.147; -254.734
503.310;  316.249; -437.159; -375.713
503.593;  196.380; -464.147; -325.735
503.877;  138.029; -232.133; -156.760
504.161;  201.415;    2.847;  -50.724
504.444;  179.841; -841.158; -710.716
504.728;  759.847; -487.164; -522.704
505.012; 1091.419; -257.150;  -76.729
505.295;  800.684; -417.161; -212.711
505.579;  827.637; -256.156; -496.719
505.862; 1204.824; -555.145; -333.738
506.146; 1176.652; -681.159; -758.714
506.429;  559.878;  568.841;  461.286
506.713;  129.991; -732.151; -667.728
506.996;  501.403;   90.846;  295.278
507.280;  554.116; -633.165; -474.703
507.563;  385.045; -469.155; -261.721
507.847;  177.313; -423.153; -112.724
508.130;  186.660; -665.161; -456.711
508.413;  240.518; -758.167; -577.700
508.697;  400.043; -151.167;   12.300
508.980;  265.765; -422.153; -312.724
509.263;   50.015; -466.155; -450.720
509.547;   61.994; -124.150;   82.271
509.830;   65.588; -172.160;  140.289
510.113;  106.562;  128.844;  298.281
510.396;   45.647; -530.152; -300.725
510.680;   63.375; -818.145; -812.738
510.963;  270.034;  184.846;  180.277
511.246;  169.478; -493.150; -357.730
511.529;  289.706; -482.145;  -83.739
511.812;  617.825; -250.134;   10.241
512.095;  453.612; -740.151; -396.728
512.378;  111.335; -317.147; -245.736
512.661;   83.989; -703.137; -623.753
512.944;   81.160; -750.142; -637.744
513.227;  108.460; -170.137; -171.752
513.510;   76.717; -479.144; -671.741
513.793;   56.480; -485.140; -435.747
514.076;  166.198;  -43.127;  -39.771
514.359;  153.090; -294.149; -135.732
514.642;  163.038; -442.142; -567.744
514.925; 1086.053;  581.860;  561.253
515.208; 1560.595; -498.134; -443.758
515.491;  998.687; -276.133; -182.761
515.773;  572.647; -410.143; -337.742
516.056; 3156.622;  249.864;  409.246
516.339; 4135.802; -754.136; -652.755
516.622; 1969.801; -518.150; -488.730
516.904;  613.455;  882.857;  975.257
517.187;  257.659; -730.138; -523.752
517.470;  430.079; -568.143; -510.743
517.752;  692.455; -624.136; -470.756
518.035;  559.543; -708.139; -725.749
518.318;  604.227; -799.136; -744.755
518.600; 3807.542; -300.132; -325.762
518.883; 5208.462;  310.858;   88.256
519.165; 2389.425; -585.138; -426.751
519.448;  444.841;  -61.132;  -19.762
519.730;  229.208; -573.126; -415.773
520.013;  245.608;  588.867;  664.240
520.295;  351.252;  -94.134;  -15.759
520.578;  735.158; -335.131; -305.764
520.860;  969.917; -254.132;   56.238
521.143;  679.833; -763.135; -584.756
521.425;  575.023; -251.125; -279.775
521.707;  939.824; -622.127; -380.771
521.990; 2685.124; -199.127;  167.229
522.272; 3098.882; -116.140;   -4.748
522.554; 1135.172; -237.143; -157.742
522.836;  277.224;  -24.134;   99.241
523.119;  194.026; -496.148; -189.734
523.401;  190.866; -448.130; -314.766
523.683;  154.089; -865.137; -693.753
523.965;  409.331;  408.862;  260.248
524.247;  424.550;   54.878;  170.220
524.529;  314.627; -451.134; -367.759
524.812;  479.918;   -3.130;  191.234
525.094; 1370.655; -773.138; -631.751
525.376; 2103.460; -143.124;   78.223
525.658; 1266.673; -441.136; -339.754
525.940;   94.128; -805.131; -671.764
526.222;   40.053; -188.136;  -88.755
526.504;   62.376; -190.131;   32.237
526.786;   43.055; -960.133; -647.760
527.068;  125.691; -124.123;  -67.778
527.349;    6.119; -865.137; -774.754
527.631;  129.441; -137.132;   22.238
527.913;  241.773; -664.127; -450.771
528.195;  308.265; -761.125; -639.774
528.477;  366.771;  -93.134;  -30.758
528.759;  259.193; -648.130; -522.766
529.040;  152.840; -569.123; -293.778
529.322;   89.093; -235.125;  -10.774
529.604;   92.496;  -47.130;   93.233
529.886;   49.857; -546.126; -302.773
530.167;   93.436;  232.870;  192.235
530.449;   60.284;    1.853;   63.265
530.731;   78.024; -572.122; -459.779
531.012;  136.174; -513.120; -216.784
531.294;  138.872; -118.116;  -43.792
531.575;  194.248;  290.875;  538.225
531.857;  140.264; -548.135; -266.757
532.138;  126.298; -113.141;   40.254
532.420;  128.960;  294.865;  403.244
532.701;   88.533; -722.133; -751.760
532.983;  207.912;  232.867;  182.239
533.264;   60.155; -243.126;  175.228
533.546;  -29.073; -491.136; -508.755
533.827;   37.004;  173.867;   -1.759
534.109;   23.014; -352.135;  -80.757
534.390;  109.471; -725.132; -582.762
534.671;  312.134; -270.135;  -82.756
534.953;  219.493; -751.123; -611.779
535.234;   55.879; -426.117; -255.789
535.515;  -45.390; -891.119; -735.785
535.796;   19.918; -431.128; -193.770
536.078;  -86.966;-1050.124; -904.777
536.359;   20.219;  -22.123;    3.221
536.640;   -1.808; -480.125; -197.774
536.921;  174.627;  225.871;  143.232
537.202;  537.501;  -87.138;  -16.751
537.483;  655.782;  251.869;  377.236
537.764;  265.311;   17.870;   98.235
538.045;   -9.156; -543.134; -371.758
538.326;  -11.670; -596.129; -447.768
538.607;   69.900; -686.127; -476.771
538.888;  266.663;   98.879;    5.218
