
Integration time [ms]: 200.000
Averaging Nr. [scans]: 10
Smoothing Nr. [pixels]: 0
Data measured with spectrometer [name]: 2101012U2
Wave   ;Sample   ;Dark     ;Reference
[nm]   ;[counts] ;[counts] ;[counts] 

197.733;  113.600;  516.000;  404.000
197.879; -182.900; -610.000; -634.000
198.025;  -89.700; -475.000; -420.000
198.171; -164.600; -602.000; -612.000
198.317;  -48.800; -401.000; -316.000
198.463; -147.900; -655.000; -404.000
198.609;   71.000;  181.000; -137.000
198.755; -155.300; -644.000; -410.000
198.901; -150.200; -505.000; -424.000
199.047; -115.700; -615.000; -488.000
199.193;  -70.900; -230.000; -468.000
199.339;  -83.600; -222.000; -369.000
199.485;   98.100;  330.000;  271.000
199.631;   52.900;  227.000;  310.000
199.777;  -95.400; -466.000; -398.000
199.923; -142.800; -610.000; -424.000
200.069;   -0.800; -141.000;  -58.000
200.215;  124.900;  128.000;  453.000
200.361;   80.300;  243.000;  477.000
200.507; -141.700; -600.000; -373.000
200.653;  -42.700; -371.000; -194.000
200.798;  -86.800; -215.000; -125.000
200.944;  -10.500; -146.000;  -41.000
201.090;   73.600;   61.000;  222.000
201.236;   -7.000; -116.000; -158.000
201.382;  267.400;  874.000;  903.000
201.528;  -21.800;  -58.000;  -48.000
201.674; -124.800; -386.000; -293.000
201.819; -137.100; -540.000; -439.000
201.965; -201.900; -699.000; -447.000
202.111;  -59.000; -273.000; -226.000
202.257;  -86.500; -250.000; -238.000
202.402;   37.700;   13.000;  -36.000
202.548;  -49.400; -169.000; -116.000
202.694;  165.500;  410.000; -183.000
202.840; -151.400; -603.000; -531.000
202.985; -174.700; -681.000; -639.000
203.131; -234.700; -832.000; -666.000
203.277;  -81.400; -199.000; -262.000
203.423;  -91.300; -434.000; -520.000
203.568;  -99.800; -462.000; -237.000
203.714; -131.700; -535.000; -542.000
203.860; -182.100; -682.000; -641.000
204.005;   19.100;  112.000;  167.000
204.151;  174.500;  561.000;  556.000
204.296;  -92.500; -354.000; -221.000
204.442; -159.500; -600.000; -547.000
204.588; -155.900; -592.000; -579.000
204.733;   43.900;  178.000;  168.000
204.879; -284.400;-1018.000; -822.000
205.025;   15.600;  -99.000;  126.000
205.170;   -9.300;  -17.000;   94.000
205.316;  186.100;  438.000;  661.000
205.461; -170.000; -698.000; -554.000
205.607;  160.500;  609.000;  665.000
205.752; -166.800; -626.000; -551.000
205.898; -105.300; -501.000; -391.000
206.043;  -82.900; -578.000; -506.000
206.189;  -97.000; -243.000; -285.000
206.334;  172.400;  554.000;  606.000
206.480;  130.100;  409.000;  239.000
206.625; -188.400; -529.000; -552.000
206.771; -114.400; -451.000; -373.000
206.916;  -60.700; -210.000; -537.000
207.062; -155.300; -545.000; -591.000
207.207; -138.900; -546.000; -443.000
207.353;  117.500;  185.000;  460.000
207.498;   37.200;  196.000;   85.000
207.643;  -98.100; -501.000; -370.000
207.789; -280.600;-1069.000; -910.000
207.934; -223.700; -665.000; -713.000
208.080;  -21.700; -154.000;   66.000
208.225;   20.000;  -22.000;  -57.000
208.370; -175.000; -727.000; -619.000
208.516; -156.000; -741.000; -487.000
208.661;  -55.400; -127.000;  -69.000
208.806;  -53.300; -165.000; -171.000
208.952; -250.300;-1044.000; -731.000
209.097;  134.000;  378.000;  349.000
209.242;  -75.600; -307.000; -382.000
209.387;  122.500;  392.000;  350.000
209.533; -101.900; -321.000; -350.000
209.678;  219.900;  472.000;  543.000
209.823; -132.400; -408.000; -310.000
209.969; -223.500; -860.000; -757.000
210.114; -252.400; -907.000; -719.000
210.259; -231.800; -939.000; -889.000
210.404;  -13.500; -171.000;  103.000
210.549;   20.300;  108.000;    3.000
210.695;   -3.100;   -3.000;  -95.000
210.840;   67.100;   94.000;   67.000
210.985; -125.100; -484.000; -303.000
211.130;  180.600;  268.000;  406.000
211.275;   56.400;  207.000;  199.000
211.420;  -72.700; -300.000; -289.000
211.566; -139.500; -536.000; -489.000
211.711;   45.600;  218.000;  157.000
211.856; -123.000; -545.000; -519.000
212.001;   24.400;  151.000;   44.000
212.146;   28.100;  153.000;   49.000
212.291;  -38.700; -210.000; -186.000
212.436;   -5.900; -280.000;   -6.000
212.581; -167.900; -685.000; -653.000
212.726; -145.500; -487.000; -538.000
212.871;  -87.400; -552.000; -217.000
213.016; -332.500;-1172.000;-1029.000
213.161;  123.900;  406.000;  291.000
213.306; -144.900; -435.000; -577.000
213.451; -206.100; -778.000; -689.000
213.596;  -89.400; -455.000; -347.000
213.741; -118.600; -448.000; -538.000
213.886; -160.900; -498.000; -517.000
214.031;  -43.300; -294.000; -124.000
214.176; -112.400; -408.000; -341.000
214.321;  -59.600; -296.000; -157.000
214.466;  -37.300; -163.000;  -43.000
214.611;    6.100;  -61.000;  -10.000
214.756; -227.500; -948.000; -858.000
214.901;  -44.500; -388.000; -226.000
215.046; -206.500; -797.000; -825.000
215.191;   75.400;  128.000;   35.000
215.336;   -6.500; -157.000;  -19.000
215.480; -143.000; -684.000; -505.000
215.625;   -7.100; -175.000;  -19.000
215.770; -172.500; -757.000; -662.000
215.915;  -40.800;   -5.000;  -97.000
216.060;   34.800; -113.000;  -21.000
216.205; -262.600; -731.000; -779.000
216.349; -144.700; -470.000; -533.000
216.494; -263.700; -939.000; -867.000
216.639; -247.500; -823.000; -888.000
216.784; -173.300; -577.000; -525.000
216.929;   87.000;  392.000;  281.000
217.073;  -23.200; -244.000;  -31.000
217.218;   39.400;   78.000;  -47.000
217.363; -191.400; -656.000; -618.000
217.507; -165.600; -623.000; -588.000
217.652; -265.200; -845.000; -874.000
217.797; -207.000; -708.000; -659.000
217.942; -231.300; -856.000; -720.000
218.086;  187.100;  608.000;  539.000
218.231;  -27.600; -174.000;  -26.000
218.376;  -68.400; -337.000; -229.000
218.520;   20.800;  -41.000;   96.000
218.665;  -82.800; -338.000; -204.000
218.810;  -93.500; -275.000; -233.000
218.954;   52.900;  201.000;   35.000
219.099; -218.000; -713.000; -963.000
219.243; -123.000; -589.000; -554.000
219.388;  -39.500; -264.000; -136.000
219.532;    3.400; -116.000; -116.000
219.677; -153.500; -564.000; -521.000
219.822;   -3.000;   33.000;   89.000
219.966;   11.400;   17.000;  -99.000
220.111;  -67.200; -328.000;  -40.000
220.255; -187.300; -797.000; -750.000
220.400;  -24.200; -180.000; -146.000
220.544; -121.200; -516.000; -450.000
220.689; -137.900; -422.000; -451.000
220.833;  -29.200; -123.000;  -58.000
220.978; -100.100; -393.000; -563.000
221.122;   60.700;  319.000;  307.000
221.267; -250.400; -906.000; -837.000
221.411; -130.000; -478.000; -394.000
221.555;  -18.800; -104.000;  -23.000
221.700;  -94.100; -329.000; -222.000
221.844;   86.900;  255.000;  272.000
221.989;  -58.300; -328.000; -311.000
222.133;  -97.400; -289.000; -307.000
222.277;   11.200;    5.000;   78.000
222.422;   58.800;  227.000;  113.000
222.566;  -76.200; -381.000; -214.000
222.711; -114.500; -414.000; -479.000
222.855; -159.300; -643.000; -586.000
222.999; -163.600; -642.000; -717.000
223.144;  -71.000; -195.000; -194.000
223.288;  123.000;  423.000;  251.000
223.432;   30.100;  184.000;  230.000
223.576;   37.900;  152.000;  -21.000
223.721;   95.600;  364.000;  273.000
223.865; -134.900; -472.000; -475.000
224.009;  513.000; 1673.000; 1631.000
224.153; -190.600; -660.000; -671.000
224.298; -151.400; -531.000; -489.000
224.442;    2.700;  -74.000;  -33.000
224.586;  -16.300; -169.000; -106.000
224.730; -208.200; -858.000; -670.000
224.875; -209.300; -739.000; -688.000
225.019;   35.400;  102.000;  188.000
225.163;  122.700;  208.000;  341.000
225.307;   48.800;   97.000;  -91.000
225.451;   91.500;  360.000;  481.000
225.595;   84.400;  264.000;  176.000
225.739;   -5.400; -170.000;  -94.000
225.884;   28.000;   86.000;    5.000
226.028; -198.900; -760.000; -626.000
226.172;  -72.700; -260.000; -273.000
226.316; -228.500; -941.000; -902.000
226.460; -145.400; -645.000; -493.000
226.604;  -88.700; -406.000; -400.000
226.748; -219.800; -836.000; -733.000
226.892;  -58.600; -227.000; -181.000
227.036; -120.300; -537.000; -447.000
227.180; -117.100; -551.000; -375.000
227.324; -131.700; -561.000; -580.000
227.468; -221.700; -819.000; -717.000
227.612;   37.000;  242.000;  -28.000
227.756; -196.100; -845.000; -698.000
227.900;  104.500;  342.000;  441.000
228.044; -154.800; -509.000; -290.000
228.188;  133.200;  448.000;  568.000
228.332; -176.300; -546.000; -472.000
228.476;  -44.400; -223.000; -149.000
228.620;  -71.300; -210.000; -150.000
228.764;  148.400;  431.000;  349.000
228.908;  -51.600; -155.000;   30.000
229.052; -116.400; -615.000; -528.000
229.195;  -33.900; -172.000;   13.000
229.339;  -25.200; -235.000; -305.000
229.483;  -46.500;    5.000; -162.000
229.627;   -7.600; -156.000;  139.000
229.771; -107.000; -218.000; -294.000
229.915;    8.000;  230.000;   79.000
230.059; -184.000; -648.000; -663.000
230.202;  -98.300; -370.000; -317.000
230.346;  -44.300; -107.000;  107.000
230.490; -132.200; -489.000; -521.000
230.634; -207.800; -736.000; -553.000
230.777;  164.400;  478.000;  509.000
230.921; -107.200; -450.000; -359.000
231.065;  -89.900; -246.000; -286.000
231.209;   72.200;  261.000;  265.000
231.352;   39.600;   54.000;   40.000
231.496;   58.600;  568.000;  188.000
231.640; -154.900; -693.000; -621.000
231.783;  142.500;  546.000;  525.000
231.927; -106.400; -294.000; -365.000
232.071; -237.200; -962.000; -736.000
232.214; -249.600; -980.000; -764.000
232.358; -217.100; -683.000; -599.000
232.502;   11.300;  -19.000;    7.000
232.645; -288.900;-1090.000; -927.000
232.789;  -58.200; -257.000; -218.000
232.933;  -87.800; -407.000; -224.000
233.076; -294.200;-1038.000; -897.000
233.220; -238.200; -752.000; -777.000
233.363; -160.600; -669.000; -477.000
233.507;  154.700;  371.000;  129.000
233.650; -194.100; -764.000; -834.000
233.794;   93.700;  438.000;  461.000
233.938; -115.000; -530.000; -362.000
234.081;  -23.600;  -93.000;   31.000
234.225; -145.400; -631.000; -539.000
234.368; -234.600; -773.000; -723.000
234.512;  -85.500; -385.000; -299.000
234.655; -195.500; -582.000; -555.000
234.798; -146.400; -493.000; -466.000
234.942; -248.700; -884.000;-1002.000
235.085; -118.700; -651.000; -443.000
235.229; -131.500; -405.000; -410.000
235.372; -106.600; -247.000; -191.000
235.516; -123.100; -397.000; -321.000
235.659;   74.400;   92.000;  121.000
235.802;  -16.500;  -38.000;  -22.000
235.946;   51.800;  335.000;  215.000
236.089;   48.300;  126.000;  250.000
236.233;  124.200;  275.000;  298.000
236.376; -112.800; -235.000; -378.000
236.519;  -83.500; -297.000; -319.000
236.663;  -19.100; -215.000; -117.000
236.806; -268.600;-1029.000; -999.000
236.949;  130.300;  543.000;  431.000
237.092;  141.400;  412.000;  391.000
237.236; -176.100; -589.000; -502.000
237.379;  175.000;  352.000;  428.000
237.522; -232.400; -879.000; -768.000
237.666;  -30.400; -271.000;   18.000
237.809; -246.100; -851.000; -823.000
237.952;  101.500;  469.000;  271.000
238.095; -140.600; -447.000; -442.000
238.238;  183.900;  688.000;  700.000
238.382;    8.100;  166.000;  103.000
238.525; -140.200; -598.000; -511.000
238.668; -306.800;-1060.000; -985.000
238.811; -183.400; -638.000; -643.000
238.954; -120.100; -483.000; -334.000
239.097;  203.400;  617.000;  664.000
239.241;   94.900;  394.000;  326.000
239.384;  -69.000; -254.000; -214.000
239.527; -105.400; -424.000; -224.000
239.670; -292.100; -994.000;-1091.000
239.813; -236.300; -696.000; -658.000
239.956;  161.100;  579.000;  473.000
240.099; -254.600; -778.000; -725.000
240.242;  141.800;  428.000;  432.000
240.385;  123.500;  466.000;  450.000
240.528; -140.800; -706.000; -473.000
240.671;   41.200;  189.000;  134.000
240.814;  -69.400; -441.000; -158.000
240.957; -177.900; -767.000; -578.000
241.100; -187.600; -779.000; -755.000
241.243; -270.600;-1234.000; -893.000
241.386; -127.500; -508.000; -379.000
241.529; -168.600; -735.000; -547.000
241.672; -135.900; -566.000; -495.000
241.815; -226.300; -832.000; -808.000
241.958;  -26.400; -125.000; -182.000
242.101; -133.100; -545.000; -390.000
242.244;  -70.900; -270.000; -325.000
242.387;  -76.500; -304.000; -246.000
242.530;  127.600;  470.000;  134.000
242.673;  -63.800; -381.000; -309.000
242.815; -225.100; -925.000; -899.000
242.958; -116.100; -482.000; -381.000
243.101;   29.600;  132.000;  187.000
243.244; -167.900; -564.000; -521.000
243.387; -100.600; -313.000; -316.000
243.530; -172.200; -657.000; -674.000
243.672;    6.300;   43.000;  -92.000
243.815;  -85.800; -355.000; -283.000
243.958;   -3.000;   98.000;  -26.000
244.101;   13.500;   59.000;  -16.000
244.243;  -10.500;  -47.000;  101.000
244.386; -218.000; -761.000; -630.000
244.529;  -55.700; -132.000; -139.000
244.672; -311.600;-1154.000; -951.000
244.814; -216.800; -621.000; -794.000
244.957;  -77.600; -380.000; -304.000
245.100; -141.300; -489.000; -489.000
245.242;  -95.600; -387.000; -374.000
245.385;    0.100;  -59.000;  -39.000
245.528; -263.500; -871.000; -705.000
245.670;  213.600;  612.000;  634.000
245.813; -169.300; -599.000; -547.000
245.956;  -70.300; -324.000; -275.000
246.098; -115.300; -508.000; -650.000
246.241;   19.100;  194.000;   48.000
246.383;  -27.800; -119.000;  -73.000
246.526; -141.000; -454.000; -525.000
246.669; -234.400; -889.000; -780.000
246.811;   32.900;  172.000;   -1.000
246.954; -123.400; -512.000; -426.000
247.096;  -47.700;  -84.000;   -6.000
247.239; -137.400; -482.000; -445.000
247.381; -138.800; -647.000; -488.000
247.524;  205.400;  645.000;  679.000
247.666;   -1.500;   58.000;   11.000
247.809; -228.300; -887.000; -691.000
247.951;  -20.500;  -75.000;  138.000
248.094;   68.100;  432.000;  308.000
248.236; -319.600;-1262.000;-1238.000
248.378;   11.000; -356.000;  -81.000
248.521;  -46.000; -334.000; -337.000
248.663;  -62.800; -236.000; -267.000
248.806;  -24.900; -300.000; -266.000
248.948; -180.600; -886.000; -763.000
249.090; -109.500; -428.000; -398.000
249.233; -100.100; -344.000; -381.000
249.375; -141.300; -474.000; -451.000
249.518;  -42.300;  -83.000; -133.000
249.660;  -14.800; -103.000;    3.000
249.802; -349.100;-1303.000;-1189.000
249.945; -167.600; -612.000; -540.000
250.087; -229.200; -834.000; -768.000
250.229; -121.400; -362.000; -480.000
250.371; -153.500; -494.000; -439.000
250.514;  -92.100; -310.000; -244.000
250.656; -108.100;   69.000;  102.000
250.798; -243.000; -849.000; -800.000
250.940; -127.500; -322.000; -322.000
251.083;  -57.800; -335.000; -111.000
251.225;  135.000;  338.000;  310.000
251.367;  -80.800; -274.000; -373.000
251.509;  -52.100; -265.000; -210.000
251.651; -212.800; -731.000; -671.000
251.794;  160.000;  538.000;  632.000
251.936; -238.600; -821.000; -747.000
252.078; -123.200; -540.000; -461.000
252.220; -150.200; -645.000; -477.000
252.362;  151.200;  344.000;  462.000
252.504; -142.000; -677.000; -584.000
252.646; -231.600; -875.000; -722.000
252.788;  -11.400;   14.000; -128.000
252.931;  -45.200; -257.000; -253.000
253.073;  -77.200; -376.000; -317.000
253.215;    7.000;  141.000;  122.000
253.357;    2.200;   82.000; -153.000
253.499;  -94.300; -374.000; -234.000
253.641; -136.400; -749.000; -594.000
253.783; -178.100; -609.000; -527.000
253.925; -178.800; -586.000; -591.000
254.067; -230.400; -744.000; -667.000
254.209;  -62.800; -391.000; -259.000
254.351; -275.200; -865.000; -883.000
254.493; -111.400; -441.000; -417.000
254.635; -216.100; -936.000; -818.000
254.777; -186.700; -752.000; -687.000
254.918; -164.600; -512.000; -430.000
255.060;  -94.800; -551.000; -395.000
255.202;  -93.400; -473.000; -261.000
255.344; -154.100; -658.000; -455.000
255.486; -119.600; -471.000; -406.000
255.628; -224.900; -780.000; -781.000
255.770; -181.000; -676.000; -536.000
255.912; -119.900; -559.000; -468.000
256.053; -168.200; -730.000; -508.000
256.195;  346.300; 1008.000;  903.000
256.337; -192.600; -861.000; -595.000
256.479;  134.300;  532.000;  416.000
256.621;  -84.900; -394.000; -212.000
256.762; -191.300; -789.000; -742.000
256.904;  162.500;  485.000;  487.000
257.046;  -91.400; -381.000; -271.000
257.188;  -80.200; -351.000; -264.000
257.329; -141.400; -525.000; -464.000
257.471; -230.400; -939.000; -807.000
257.613; -110.700; -584.000; -498.000
257.755; -309.100;-1073.000; -982.000
257.896;   76.000;  286.000;  392.000
258.038; -126.600; -403.000; -352.000
258.180;  -87.000; -354.000; -279.000
258.321; -165.700; -581.000; -457.000
258.463;   -6.800;  -71.000;  133.000
258.605; -179.400; -562.000; -570.000
258.746; -215.200; -886.000; -772.000
258.888; -314.900;-1026.000;-1020.000
259.029;   69.600;  121.000;   -8.000
259.171; -168.100; -614.000; -550.000
259.313;   -3.800;  -49.000;  -47.000
259.454; -134.700; -536.000; -414.000
259.596;  -98.800; -483.000; -390.000
259.737; -140.200; -590.000; -474.000
259.879;   99.000;  217.000;  311.000
260.020;  203.200;  901.000;  636.000
260.162;  -41.400; -146.000; -253.000
260.303; -215.300; -768.000; -687.000
260.445; -161.200; -609.000; -613.000
260.586;   71.200;  392.000;  157.000
260.728;  -63.800; -360.000; -248.000
260.869; -117.100; -350.000; -343.000
261.011;  171.700;  706.000;  537.000
261.152;  -88.500; -479.000; -319.000
261.293; -169.600; -576.000; -595.000
261.435;  -37.700; -219.000; -184.000
261.576;  -99.100; -455.000; -325.000
261.718;  164.400;  420.000;  470.000
261.859; -270.800; -940.000; -949.000
262.000; -277.900; -951.000;-1016.000
262.142;  -45.300;  -52.000;  -60.000
262.283; -235.100; -808.000; -691.000
262.424; -155.800; -666.000; -625.000
262.566; -317.100;-1161.000; -983.000
262.707; -227.800; -840.000; -830.000
262.848; -234.200; -769.000; -726.000
262.990; -118.200; -362.000; -345.000
263.131;  208.600;  650.000;  681.000
263.272;   -6.900;  -61.000;  -41.000
263.413; -169.100; -589.000; -561.000
263.555; -119.700; -669.000; -143.000
263.696; -160.000; -550.000; -641.000
263.837; -105.400; -449.000; -551.000
263.978;   45.300;   -5.000;  -77.000
264.119;  -87.000; -283.000; -264.000
264.261; -191.700; -847.000; -630.000
264.402;   27.200;   33.000;   40.000
264.543; -124.800; -509.000; -524.000
264.684;   -3.700;   61.000;  -50.000
264.825; -146.000; -816.000; -538.000
264.966;    6.200;  -84.000;  -67.000
265.107; -248.600; -646.000; -670.000
265.248; -258.200; -825.000; -812.000
265.390;   13.900;  152.000;   -9.000
265.531;  -46.200; -238.000; -107.000
265.672; -171.000; -557.000; -630.000
265.813;  125.600;  563.000;  439.000
265.954; -290.600; -959.000; -940.000
266.095;  -21.600; -372.000; -322.000
266.236; -172.400; -686.000; -548.000
266.377;  -65.400; -243.000; -297.000
266.518;  -90.100; -619.000; -547.000
266.659;   71.200;  170.000;  268.000
266.800;   60.300;   83.000;   85.000
266.941; -146.800; -487.000; -478.000
267.082;   68.200;  354.000;   99.000
267.223; -113.100; -344.000; -273.000
267.364; -230.100; -892.000; -686.000
267.504;   -2.600;    3.000;  135.000
267.645;    8.200;  160.000;   67.000
267.786;  -66.900; -147.000;  -86.000
267.927; -127.600; -473.000; -379.000
268.068;  -64.100; -186.000;  -61.000
268.209;  -87.500; -175.000; -413.000
268.350; -152.900; -388.000; -532.000
268.490; -180.300; -648.000; -521.000
268.631;   79.500;  127.000;  225.000
268.772; -210.000; -874.000; -647.000
268.913;  -76.400; -328.000; -476.000
269.054;    4.000; -117.000;   12.000
269.194;  -49.500; -418.000; -402.000
269.335; -296.000;-1137.000;-1074.000
269.476;  -16.500;   33.000;  -35.000
269.617;  -63.700; -347.000; -392.000
269.757; -176.500; -713.000; -646.000
269.898; -199.100; -856.000; -613.000
270.039; -111.600; -415.000; -405.000
270.180; -276.400; -952.000; -816.000
270.320;  -62.700; -190.000; -250.000
