
Integration time [ms]: 200.000
Averaging Nr. [scans]: 10
Smoothing Nr. [pixels]: 0
Data measured with spectrometer [name]: 2101012U2
Wave   ;Sample   ;Dark     ;Reference
[nm]   ;[counts] ;[counts] ;[counts] 

197.733;  128.300;  516.000;  404.000
197.879; -132.000; -610.000; -634.000
198.025; -122.100; -475.000; -420.000
198.171; -147.900; -602.000; -612.000
198.317;  -54.000; -401.000; -316.000
198.463; -130.100; -655.000; -404.000
198.609;   53.800;  181.000; -137.000
198.755; -193.800; -644.000; -410.000
198.901; -138.400; -505.000; -424.000
199.047; -133.000; -615.000; -488.000
199.193;  -66.000; -230.000; -468.000
199.339;  -99.800; -222.000; -369.000
199.485;   74.900;  330.000;  271.000
199.631;   47.700;  227.000;  310.000
199.777; -114.800; -466.000; -398.000
199.923; -131.600; -610.000; -424.000
200.069;  -17.300; -141.000;  -58.000
200.215;  119.600;  128.000;  453.000
200.361;   64.800;  243.000;  477.000
200.507; -117.100; -600.000; -373.000
200.653;  -89.000; -371.000; -194.000
200.798;  -48.300; -215.000; -125.000
200.944;  -16.000; -146.000;  -41.000
201.090;   80.000;   61.000;  222.000
201.236;   -1.000; -116.000; -158.000
201.382;  250.800;  874.000;  903.000
201.528;   -3.000;  -58.000;  -48.000
201.674; -105.400; -386.000; -293.000
201.819; -121.700; -540.000; -439.000
201.965; -175.000; -699.000; -447.000
202.111;  -72.300; -273.000; -226.000
202.257;  -72.800; -250.000; -238.000
202.402;   19.200;   13.000;  -36.000
202.548;  -40.600; -169.000; -116.000
202.694;  168.900;  410.000; -183.000
202.840; -152.900; -603.000; -531.000
202.985; -193.200; -681.000; -639.000
203.131; -201.100; -832.000; -666.000
203.277;  -61.000; -199.000; -262.000
203.423; -112.600; -434.000; -520.000
203.568;  -78.400; -462.000; -237.000
203.714; -121.800; -535.000; -542.000
203.860; -170.400; -682.000; -641.000
204.005;   77.100;  112.000;  167.000
204.151;  131.100;  561.000;  556.000
204.296;  -72.000; -354.000; -221.000
204.442; -149.300; -600.000; -547.000
204.588; -179.000; -592.000; -579.000
204.733;   50.200;  178.000;  168.000
204.879; -266.400;-1018.000; -822.000
205.025;    2.700;  -99.000;  126.000
205.170;   19.000;  -17.000;   94.000
205.316;  178.700;  438.000;  661.000
205.461; -150.700; -698.000; -554.000
205.607;  161.200;  609.000;  665.000
205.752; -166.700; -626.000; -551.000
205.898; -116.500; -501.000; -391.000
206.043; -119.300; -578.000; -506.000
206.189;  -89.400; -243.000; -285.000
206.334;  179.200;  554.000;  606.000
206.480;  167.500;  409.000;  239.000
206.625; -150.200; -529.000; -552.000
206.771;  -80.900; -451.000; -373.000
206.916;  -63.800; -210.000; -537.000
207.062; -133.200; -545.000; -591.000
207.207; -115.300; -546.000; -443.000
207.353;  130.500;  185.000;  460.000
207.498;   47.200;  196.000;   85.000
207.643; -149.000; -501.000; -370.000
207.789; -259.900;-1069.000; -910.000
207.934; -174.800; -665.000; -713.000
208.080;  -54.700; -154.000;   66.000
208.225;  -23.300;  -22.000;  -57.000
208.370; -168.600; -727.000; -619.000
208.516; -163.500; -741.000; -487.000
208.661;  -50.600; -127.000;  -69.000
208.806;  -54.000; -165.000; -171.000
208.952; -258.800;-1044.000; -731.000
209.097;  149.400;  378.000;  349.000
209.242;  -93.700; -307.000; -382.000
209.387;  118.500;  392.000;  350.000
209.533;  -76.100; -321.000; -350.000
209.678;  116.400;  472.000;  543.000
209.823;  -71.000; -408.000; -310.000
209.969; -214.300; -860.000; -757.000
210.114; -170.500; -907.000; -719.000
210.259; -268.600; -939.000; -889.000
210.404;  -22.600; -171.000;  103.000
210.549;   16.500;  108.000;    3.000
210.695;  -13.200;   -3.000;  -95.000
210.840;   55.900;   94.000;   67.000
210.985; -103.200; -484.000; -303.000
211.130;  139.200;  268.000;  406.000
211.275;   52.100;  207.000;  199.000
211.420; -116.600; -300.000; -289.000
211.566; -121.800; -536.000; -489.000
211.711;   59.000;  218.000;  157.000
211.856; -117.500; -545.000; -519.000
212.001;   21.000;  151.000;   44.000
212.146;   39.900;  153.000;   49.000
212.291;  -32.800; -210.000; -186.000
212.436;  -37.500; -280.000;   -6.000
212.581; -177.100; -685.000; -653.000
212.726; -155.500; -487.000; -538.000
212.871; -117.500; -552.000; -217.000
213.016; -319.700;-1172.000;-1029.000
213.161;  139.400;  406.000;  291.000
213.306; -116.900; -435.000; -577.000
213.451; -211.600; -778.000; -689.000
213.596;  -81.500; -455.000; -347.000
213.741; -107.600; -448.000; -538.000
213.886; -146.400; -498.000; -517.000
214.031;  -49.100; -294.000; -124.000
214.176;  -78.300; -408.000; -341.000
214.321;  -62.200; -296.000; -157.000
214.466;  -31.200; -163.000;  -43.000
214.611;   -3.200;  -61.000;  -10.000
214.756; -260.800; -948.000; -858.000
214.901;  -24.500; -388.000; -226.000
215.046; -230.700; -797.000; -825.000
215.191;   40.800;  128.000;   35.000
215.336;   -6.300; -157.000;  -19.000
215.480; -114.900; -684.000; -505.000
215.625;  -21.900; -175.000;  -19.000
215.770; -167.800; -757.000; -662.000
215.915;  -28.900;   -5.000;  -97.000
216.060;  -36.000; -113.000;  -21.000
216.205; -227.000; -731.000; -779.000
216.349; -148.700; -470.000; -533.000
216.494; -270.000; -939.000; -867.000
216.639; -234.100; -823.000; -888.000
216.784; -165.100; -577.000; -525.000
216.929;   88.500;  392.000;  281.000
217.073;  -14.400; -244.000;  -31.000
217.218;   22.000;   78.000;  -47.000
217.363; -120.500; -656.000; -618.000
217.507; -167.200; -623.000; -588.000
217.652; -214.300; -845.000; -874.000
217.797; -201.900; -708.000; -659.000
217.942; -202.000; -856.000; -720.000
218.086;  166.900;  608.000;  539.000
218.231;  -42.700; -174.000;  -26.000
218.376;  -69.200; -337.000; -229.000
218.520;   35.200;  -41.000;   96.000
218.665;  -72.400; -338.000; -204.000
218.810;  -75.700; -275.000; -233.000
218.954;   45.900;  201.000;   35.000
219.099; -208.800; -713.000; -963.000
219.243; -171.700; -589.000; -554.000
219.388;  -59.600; -264.000; -136.000
219.532;  -12.200; -116.000; -116.000
219.677; -134.600; -564.000; -521.000
219.822;   14.700;   33.000;   89.000
219.966;   55.200;   17.000;  -99.000
220.111;  -32.900; -328.000;  -40.000
220.255; -168.100; -797.000; -750.000
220.400;  -26.300; -180.000; -146.000
220.544; -128.200; -516.000; -450.000
220.689; -100.000; -422.000; -451.000
220.833;  -47.900; -123.000;  -58.000
220.978;  -89.000; -393.000; -563.000
221.122;   33.600;  319.000;  307.000
221.267; -243.000; -906.000; -837.000
221.411; -123.800; -478.000; -394.000
221.555;  -30.800; -104.000;  -23.000
221.700;  -76.700; -329.000; -222.000
221.844;   55.300;  255.000;  272.000
221.989;  -93.300; -328.000; -311.000
222.133;  -67.700; -289.000; -307.000
222.277;  -10.400;    5.000;   78.000
222.422;   66.400;  227.000;  113.000
222.566;  -82.300; -381.000; -214.000
222.711; -101.000; -414.000; -479.000
222.855; -163.300; -643.000; -586.000
222.999; -135.700; -642.000; -717.000
223.144;  -66.600; -195.000; -194.000
223.288;  114.700;  423.000;  251.000
223.432;   49.200;  184.000;  230.000
223.576;   45.500;  152.000;  -21.000
223.721;  122.700;  364.000;  273.000
223.865;  -99.700; -472.000; -475.000
224.009;  590.400; 1673.000; 1631.000
224.153; -140.600; -660.000; -671.000
224.298; -120.400; -531.000; -489.000
224.442;   -0.300;  -74.000;  -33.000
224.586;   -4.800; -169.000; -106.000
224.730; -190.000; -858.000; -670.000
224.875; -201.700; -739.000; -688.000
225.019;   64.100;  102.000;  188.000
225.163;  132.100;  208.000;  341.000
225.307;   57.200;   97.000;  -91.000
225.451;  122.700;  360.000;  481.000
225.595;   58.700;  264.000;  176.000
225.739;  -12.800; -170.000;  -94.000
225.884;   39.000;   86.000;    5.000
226.028; -191.300; -760.000; -626.000
226.172;  -69.600; -260.000; -273.000
226.316; -236.400; -941.000; -902.000
226.460; -142.200; -645.000; -493.000
226.604;  -93.300; -406.000; -400.000
226.748; -217.500; -836.000; -733.000
226.892;  -40.800; -227.000; -181.000
227.036; -117.700; -537.000; -447.000
227.180;  -82.300; -551.000; -375.000
227.324; -126.500; -561.000; -580.000
227.468; -215.100; -819.000; -717.000
227.612;   18.700;  242.000;  -28.000
227.756; -205.800; -845.000; -698.000
227.900;   97.400;  342.000;  441.000
228.044; -109.400; -509.000; -290.000
228.188;  116.100;  448.000;  568.000
228.332; -164.900; -546.000; -472.000
228.476;  -74.300; -223.000; -149.000
228.620;  -31.200; -210.000; -150.000
228.764;  146.600;  431.000;  349.000
228.908;  -44.800; -155.000;   30.000
229.052; -130.100; -615.000; -528.000
229.195;  -38.800; -172.000;   13.000
229.339;  -42.800; -235.000; -305.000
229.483;  -35.600;    5.000; -162.000
229.627;   13.100; -156.000;  139.000
229.771;  -42.500; -218.000; -294.000
229.915;   21.900;  230.000;   79.000
230.059; -171.200; -648.000; -663.000
230.202; -109.000; -370.000; -317.000
230.346;  -13.800; -107.000;  107.000
230.490; -129.500; -489.000; -521.000
230.634; -206.400; -736.000; -553.000
230.777;  165.800;  478.000;  509.000
230.921;  -92.100; -450.000; -359.000
231.065;  -86.700; -246.000; -286.000
231.209;   96.100;  261.000;  265.000
231.352;   54.100;   54.000;   40.000
231.496;   46.700;  568.000;  188.000
231.640; -157.500; -693.000; -621.000
231.783;  148.700;  546.000;  525.000
231.927;  -99.100; -294.000; -365.000
232.071; -241.300; -962.000; -736.000
232.214; -258.100; -980.000; -764.000
232.358; -178.800; -683.000; -599.000
232.502;   17.800;  -19.000;    7.000
232.645; -275.700;-1090.000; -927.000
232.789;  -38.300; -257.000; -218.000
232.933; -102.900; -407.000; -224.000
233.076; -250.500;-1038.000; -897.000
233.220; -198.100; -752.000; -777.000
233.363; -150.700; -669.000; -477.000
233.507;  174.300;  371.000;  129.000
233.650; -208.500; -764.000; -834.000
233.794;  120.600;  438.000;  461.000
233.938; -138.600; -530.000; -362.000
234.081;  -22.200;  -93.000;   31.000
234.225; -158.900; -631.000; -539.000
234.368; -235.100; -773.000; -723.000
234.512;  -97.800; -385.000; -299.000
234.655; -145.200; -582.000; -555.000
234.798; -119.000; -493.000; -466.000
234.942; -233.400; -884.000;-1002.000
235.085; -152.000; -651.000; -443.000
235.229; -131.800; -405.000; -410.000
235.372;  -71.600; -247.000; -191.000
235.516; -103.100; -397.000; -321.000
235.659;   15.900;   92.000;  121.000
235.802;  -29.800;  -38.000;  -22.000
235.946;   77.700;  335.000;  215.000
236.089;   79.300;  126.000;  250.000
236.233;  120.400;  275.000;  298.000
236.376;  -74.800; -235.000; -378.000
236.519;  -87.800; -297.000; -319.000
236.663;  -41.200; -215.000; -117.000
236.806; -282.800;-1029.000; -999.000
236.949;  159.700;  543.000;  431.000
237.092;  115.900;  412.000;  391.000
237.236; -153.300; -589.000; -502.000
237.379;  140.100;  352.000;  428.000
237.522; -207.100; -879.000; -768.000
237.666;  -13.000; -271.000;   18.000
237.809; -257.300; -851.000; -823.000
237.952;  114.900;  469.000;  271.000
238.095; -127.600; -447.000; -442.000
238.238;  167.600;  688.000;  700.000
238.382;   19.800;  166.000;  103.000
238.525; -145.400; -598.000; -511.000
238.668; -267.500;-1060.000; -985.000
238.811; -161.700; -638.000; -643.000
238.954; -118.600; -483.000; -334.000
239.097;  170.800;  617.000;  664.000
239.241;  100.400;  394.000;  326.000
239.384;  -53.800; -254.000; -214.000
239.527;  -97.500; -424.000; -224.000
239.670; -282.700; -994.000;-1091.000
239.813; -206.600; -696.000; -658.000
239.956;  164.400;  579.000;  473.000
240.099; -200.500; -778.000; -725.000
240.242;  151.100;  428.000;  432.000
240.385;  112.100;  466.000;  450.000
240.528; -136.000; -706.000; -473.000
240.671;   60.400;  189.000;  134.000
240.814;  -90.700; -441.000; -158.000
240.957; -182.800; -767.000; -578.000
241.100; -199.800; -779.000; -755.000
241.243; -246.800;-1234.000; -893.000
241.386; -122.900; -508.000; -379.000
241.529; -137.700; -735.000; -547.000
241.672; -123.400; -566.000; -495.000
241.815; -194.100; -832.000; -808.000
241.958;  -33.700; -125.000; -182.000
242.101; -151.000; -545.000; -390.000
242.244;  -55.300; -270.000; -325.000
242.387;  -60.300; -304.000; -246.000
242.530;  134.400;  470.000;  134.000
242.673;  -83.900; -381.000; -309.000
242.815; -232.900; -925.000; -899.000
242.958; -120.400; -482.000; -381.000
243.101;   30.500;  132.000;  187.000
243.244; -133.000; -564.000; -521.000
243.387;  -87.700; -313.000; -316.000
243.530; -169.500; -657.000; -674.000
243.672;    9.700;   43.000;  -92.000
243.815;  -81.900; -355.000; -283.000
243.958;   18.400;   98.000;  -26.000
244.101;   21.000;   59.000;  -16.000
244.243;  -16.600;  -47.000;  101.000
244.386; -194.300; -761.000; -630.000
244.529;  -61.300; -132.000; -139.000
244.672; -283.100;-1154.000; -951.000
244.814; -215.400; -621.000; -794.000
244.957;  -54.400; -380.000; -304.000
245.100; -169.000; -489.000; -489.000
245.242; -107.800; -387.000; -374.000
245.385;    9.600;  -59.000;  -39.000
245.528; -232.200; -871.000; -705.000
245.670;  196.600;  612.000;  634.000
245.813; -172.400; -599.000; -547.000
245.956;  -49.000; -324.000; -275.000
246.098; -131.200; -508.000; -650.000
246.241;   35.000;  194.000;   48.000
246.383;  -36.900; -119.000;  -73.000
246.526; -158.900; -454.000; -525.000
246.669; -206.800; -889.000; -780.000
246.811;   28.700;  172.000;   -1.000
246.954; -132.400; -512.000; -426.000
247.096;  -63.500;  -84.000;   -6.000
247.239; -137.300; -482.000; -445.000
247.381; -139.300; -647.000; -488.000
247.524;  205.300;  645.000;  679.000
247.666;   25.500;   58.000;   11.000
247.809; -223.300; -887.000; -691.000
247.951;    5.700;  -75.000;  138.000
248.094;   65.100;  432.000;  308.000
248.236; -341.300;-1262.000;-1238.000
248.378;    4.000; -356.000;  -81.000
248.521;  -41.600; -334.000; -337.000
248.663;  -70.600; -236.000; -267.000
248.806;  -62.200; -300.000; -266.000
248.948; -182.800; -886.000; -763.000
249.090;  -99.400; -428.000; -398.000
249.233; -103.800; -344.000; -381.000
249.375; -140.800; -474.000; -451.000
249.518;  -33.100;  -83.000; -133.000
249.660;   -1.700; -103.000;    3.000
249.802; -363.600;-1303.000;-1189.000
249.945; -164.200; -612.000; -540.000
250.087; -216.900; -834.000; -768.000
250.229;  -93.500; -362.000; -480.000
250.371; -121.000; -494.000; -439.000
250.514;  -96.300; -310.000; -244.000
250.656; -129.800;   69.000;  102.000
250.798; -223.800; -849.000; -800.000
250.940; -116.600; -322.000; -322.000
251.083;  -71.000; -335.000; -111.000
251.225;  107.600;  338.000;  310.000
251.367;  -70.400; -274.000; -373.000
251.509;  -74.500; -265.000; -210.000
251.651; -193.100; -731.000; -671.000
251.794;  117.300;  538.000;  632.000
251.936; -201.800; -821.000; -747.000
252.078; -138.600; -540.000; -461.000
252.220; -146.200; -645.000; -477.000
252.362;  150.200;  344.000;  462.000
252.504; -170.600; -677.000; -584.000
252.646; -185.900; -875.000; -722.000
252.788;  -12.500;   14.000; -128.000
252.931;  -89.600; -257.000; -253.000
253.073;  -88.300; -376.000; -317.000
253.215;  -10.400;  141.000;  122.000
253.357;    0.500;   82.000; -153.000
253.499; -101.600; -374.000; -234.000
253.641; -190.400; -749.000; -594.000
253.783; -166.100; -609.000; -527.000
253.925; -159.800; -586.000; -591.000
254.067; -207.300; -744.000; -667.000
254.209;  -95.800; -391.000; -259.000
254.351; -252.400; -865.000; -883.000
254.493; -117.000; -441.000; -417.000
254.635; -220.700; -936.000; -818.000
254.777; -177.100; -752.000; -687.000
254.918; -135.300; -512.000; -430.000
255.060; -123.300; -551.000; -395.000
255.202; -110.100; -473.000; -261.000
255.344; -148.900; -658.000; -455.000
255.486; -119.600; -471.000; -406.000
255.628; -231.200; -780.000; -781.000
255.770; -170.700; -676.000; -536.000
255.912; -127.700; -559.000; -468.000
256.053; -155.600; -730.000; -508.000
256.195;  303.800; 1008.000;  903.000
256.337; -205.900; -861.000; -595.000
256.479;  131.700;  532.000;  416.000
256.621;  -74.700; -394.000; -212.000
256.762; -190.200; -789.000; -742.000
256.904;  115.200;  485.000;  487.000
257.046; -100.800; -381.000; -271.000
257.188;  -62.900; -351.000; -264.000
257.329; -132.100; -525.000; -464.000
257.471; -208.200; -939.000; -807.000
257.613; -117.700; -584.000; -498.000
257.755; -286.300;-1073.000; -982.000
257.896;   73.700;  286.000;  392.000
258.038;  -88.300; -403.000; -352.000
258.180;  -60.400; -354.000; -279.000
258.321; -179.200; -581.000; -457.000
258.463;   -2.000;  -71.000;  133.000
258.605; -186.900; -562.000; -570.000
258.746; -241.500; -886.000; -772.000
258.888; -287.200;-1026.000;-1020.000
259.029;   23.500;  121.000;   -8.000
259.171; -168.200; -614.000; -550.000
259.313;  -16.700;  -49.000;  -47.000
259.454; -120.800; -536.000; -414.000
259.596; -100.100; -483.000; -390.000
259.737; -156.700; -590.000; -474.000
259.879;   87.100;  217.000;  311.000
260.020;  208.700;  901.000;  636.000
260.162;  -36.700; -146.000; -253.000
260.303; -201.900; -768.000; -687.000
260.445; -153.500; -609.000; -613.000
260.586;   78.400;  392.000;  157.000
260.728;  -89.000; -360.000; -248.000
260.869; -105.400; -350.000; -343.000
261.011;  175.100;  706.000;  537.000
261.152; -105.000; -479.000; -319.000
261.293; -167.500; -576.000; -595.000
261.435;  -27.900; -219.000; -184.000
261.576;  -69.500; -455.000; -325.000
261.718;   93.300;  420.000;  470.000
261.859; -233.500; -940.000; -949.000
262.000; -272.200; -951.000;-1016.000
262.142;  -19.600;  -52.000;  -60.000
262.283; -212.700; -808.000; -691.000
262.424; -176.700; -666.000; -625.000
262.566; -288.900;-1161.000; -983.000
262.707; -238.900; -840.000; -830.000
262.848; -239.200; -769.000; -726.000
262.990; -102.100; -362.000; -345.000
263.131;  221.800;  650.000;  681.000
263.272;  -35.400;  -61.000;  -41.000
263.413; -173.600; -589.000; -561.000
263.555; -125.000; -669.000; -143.000
263.696; -146.500; -550.000; -641.000
263.837; -137.300; -449.000; -551.000
263.978;   35.100;   -5.000;  -77.000
264.119;  -54.700; -283.000; -264.000
264.261; -215.000; -847.000; -630.000
264.402;   28.500;   33.000;   40.000
264.543; -160.200; -509.000; -524.000
264.684;  -24.700;   61.000;  -50.000
264.825; -154.400; -816.000; -538.000
264.966;   -7.200;  -84.000;  -67.000
265.107; -196.300; -646.000; -670.000
265.248; -222.100; -825.000; -812.000
265.390;    8.000;  152.000;   -9.000
265.531;    1.700; -238.000; -107.000
265.672; -145.900; -557.000; -630.000
265.813;  165.400;  563.000;  439.000
265.954; -295.900; -959.000; -940.000
266.095;  -24.200; -372.000; -322.000
266.236; -177.700; -686.000; -548.000
266.377; -102.400; -243.000; -297.000
266.518; -121.900; -619.000; -547.000
266.659;   81.600;  170.000;  268.000
266.800;   35.700;   83.000;   85.000
266.941; -183.900; -487.000; -478.000
267.082;   45.900;  354.000;   99.000
267.223;  -93.400; -344.000; -273.000
267.364; -209.300; -892.000; -686.000
267.504;    1.800;    3.000;  135.000
267.645;   17.700;  160.000;   67.000
267.786;  -51.700; -147.000;  -86.000
267.927; -119.100; -473.000; -379.000
268.068;  -31.800; -186.000;  -61.000
268.209;  -81.600; -175.000; -413.000
268.350; -104.700; -388.000; -532.000
268.490; -142.600; -648.000; -521.000
268.631;   74.200;  127.000;  225.000
268.772; -203.800; -874.000; -647.000
268.913; -101.600; -328.000; -476.000
269.054;  -10.000; -117.000;   12.000
269.194; -112.100; -418.000; -402.000
269.335; -282.100;-1137.000;-1074.000
269.476;   -1.300;   33.000;  -35.000
269.617;  -79.300; -347.000; -392.000
269.757; -177.500; -713.000; -646.000
269.898; -175.700; -856.000; -613.000
270.039; -102.600; -415.000; -405.000
270.180; -246.700; -952.000; -816.000
270.320;  -65.100; -190.000; -250.000
