
Integration time [ms]: 100.000
Averaging Nr. [scans]: 40
Smoothing Nr. [pixels]: 0
Data measured with spectrometer [name]: 2101012U2
Wave   ;Sample   ;Dark     ;Reference
[nm]   ;[counts] ;[counts] ;[counts] 

197.733;   47.800;  516.000;  404.000
197.879;  -80.250; -610.000; -634.000
198.025;  -41.050; -475.000; -420.000
198.171;  -62.525; -602.000; -612.000
198.317;  -29.725; -401.000; -316.000
198.463;  -57.275; -655.000; -404.000
198.609;   26.500;  181.000; -137.000
198.755;  -71.225; -644.000; -410.000
198.901;  -54.225; -505.000; -424.000
199.047;  -65.050; -615.000; -488.000
199.193;  -45.475; -230.000; -468.000
199.339;  -29.325; -222.000; -369.000
199.485;   37.425;  330.000;  271.000
199.631;   27.825;  227.000;  310.000
199.777;  -31.500; -466.000; -398.000
199.923;  -57.575; -610.000; -424.000
200.069;    2.575; -141.000;  -58.000
200.215;   57.400;  128.000;  453.000
200.361;   53.450;  243.000;  477.000
200.507;  -53.400; -600.000; -373.000
200.653;  -24.450; -371.000; -194.000
200.798;  -45.275; -215.000; -125.000
200.944;    2.150; -146.000;  -41.000
201.090;   46.450;   61.000;  222.000
201.236;   -7.450; -116.000; -158.000
201.382;  122.925;  874.000;  903.000
201.528;   -8.925;  -58.000;  -48.000
201.674;  -25.775; -386.000; -293.000
201.819;  -58.375; -540.000; -439.000
201.965;  -79.150; -699.000; -447.000
202.111;  -17.150; -273.000; -226.000
202.257;  -31.550; -250.000; -238.000
202.402;   26.950;   13.000;  -36.000
202.548;  -27.350; -169.000; -116.000
202.694;   88.475;  410.000; -183.000
202.840;  -66.250; -603.000; -531.000
202.985;  -62.025; -681.000; -639.000
203.131; -103.850; -832.000; -666.000
203.277;  -24.200; -199.000; -262.000
203.423;  -57.250; -434.000; -520.000
203.568;  -28.975; -462.000; -237.000
203.714;  -50.825; -535.000; -542.000
203.860;  -73.700; -682.000; -641.000
204.005;   19.625;  112.000;  167.000
204.151;   74.850;  561.000;  556.000
204.296;  -43.650; -354.000; -221.000
204.442;  -56.975; -600.000; -547.000
204.588;  -57.875; -592.000; -579.000
204.733;   22.625;  178.000;  168.000
204.879; -115.975;-1018.000; -822.000
205.025;   12.800;  -99.000;  126.000
205.170;    0.625;  -17.000;   94.000
205.316;   88.875;  438.000;  661.000
205.461;  -79.125; -698.000; -554.000
205.607;   85.250;  609.000;  665.000
205.752;  -65.550; -626.000; -551.000
205.898;  -55.825; -501.000; -391.000
206.043;  -59.050; -578.000; -506.000
206.189;  -33.825; -243.000; -285.000
206.334;   82.925;  554.000;  606.000
206.480;   65.700;  409.000;  239.000
206.625;  -79.675; -529.000; -552.000
206.771;  -46.525; -451.000; -373.000
206.916;  -25.275; -210.000; -537.000
207.062;  -58.950; -545.000; -591.000
207.207;  -54.100; -546.000; -443.000
207.353;   57.675;  185.000;  460.000
207.498;   23.200;  196.000;   85.000
207.643;  -40.800; -501.000; -370.000
207.789; -125.625;-1069.000; -910.000
207.934;  -84.725; -665.000; -713.000
208.080;  -16.900; -154.000;   66.000
208.225;  -10.875;  -22.000;  -57.000
208.370;  -61.100; -727.000; -619.000
208.516;  -66.550; -741.000; -487.000
208.661;  -37.075; -127.000;  -69.000
208.806;  -20.175; -165.000; -171.000
208.952; -122.675;-1044.000; -731.000
209.097;   75.350;  378.000;  349.000
209.242;  -42.550; -307.000; -382.000
209.387;   64.925;  392.000;  350.000
209.533;  -40.900; -321.000; -350.000
209.678;   78.150;  472.000;  543.000
209.823;  -54.550; -408.000; -310.000
209.969;  -99.750; -860.000; -757.000
210.114;  -94.925; -907.000; -719.000
210.259; -112.025; -939.000; -889.000
210.404;   -0.075; -171.000;  103.000
210.549;   29.050;  108.000;    3.000
210.695;   -8.250;   -3.000;  -95.000
210.840;   34.650;   94.000;   67.000
210.985;  -59.100; -484.000; -303.000
211.130;   66.925;  268.000;  406.000
211.275;   14.650;  207.000;  199.000
211.420;  -38.650; -300.000; -289.000
211.566;  -65.525; -536.000; -489.000
211.711;   25.950;  218.000;  157.000
211.856;  -51.950; -545.000; -519.000
212.001;   13.775;  151.000;   44.000
212.146;   24.375;  153.000;   49.000
212.291;  -20.225; -210.000; -186.000
212.436;  -12.375; -280.000;   -6.000
212.581;  -77.200; -685.000; -653.000
212.726;  -79.550; -487.000; -538.000
212.871;  -39.700; -552.000; -217.000
213.016; -137.925;-1172.000;-1029.000
213.161;   57.850;  406.000;  291.000
213.306;  -70.725; -435.000; -577.000
213.451; -101.575; -778.000; -689.000
213.596;  -36.575; -455.000; -347.000
213.741;  -41.325; -448.000; -538.000
213.886;  -84.075; -498.000; -517.000
214.031;  -19.875; -294.000; -124.000
214.176;  -42.250; -408.000; -341.000
214.321;  -26.975; -296.000; -157.000
214.466;  -21.100; -163.000;  -43.000
214.611;   -9.300;  -61.000;  -10.000
214.756; -104.200; -948.000; -858.000
214.901;  -27.600; -388.000; -226.000
215.046; -107.250; -797.000; -825.000
215.191;   17.650;  128.000;   35.000
215.336;  -17.025; -157.000;  -19.000
215.480;  -73.875; -684.000; -505.000
215.625;  -11.650; -175.000;  -19.000
215.770;  -79.825; -757.000; -662.000
215.915;  -12.275;   -5.000;  -97.000
216.060;   -8.575; -113.000;  -21.000
216.205; -109.975; -731.000; -779.000
216.349;  -68.950; -470.000; -533.000
216.494; -139.925; -939.000; -867.000
216.639;  -98.250; -823.000; -888.000
216.784;  -84.375; -577.000; -525.000
216.929;   45.700;  392.000;  281.000
217.073;  -21.600; -244.000;  -31.000
217.218;   10.500;   78.000;  -47.000
217.363;  -73.925; -656.000; -618.000
217.507;  -80.750; -623.000; -588.000
217.652; -108.825; -845.000; -874.000
217.797;  -90.700; -708.000; -659.000
217.942; -109.125; -856.000; -720.000
218.086;   69.350;  608.000;  539.000
218.231;  -26.800; -174.000;  -26.000
218.376;  -35.550; -337.000; -229.000
218.520;   14.375;  -41.000;   96.000
218.665;  -33.525; -338.000; -204.000
218.810;  -34.050; -275.000; -233.000
218.954;   18.050;  201.000;   35.000
219.099;  -97.000; -713.000; -963.000
219.243;  -60.275; -589.000; -554.000
219.388;  -18.800; -264.000; -136.000
219.532;  -10.675; -116.000; -116.000
219.677;  -70.200; -564.000; -521.000
219.822;   12.775;   33.000;   89.000
219.966;   17.825;   17.000;  -99.000
220.111;  -27.875; -328.000;  -40.000
220.255;  -89.250; -797.000; -750.000
220.400;  -16.975; -180.000; -146.000
220.544;  -60.925; -516.000; -450.000
220.689;  -48.500; -422.000; -451.000
220.833;  -14.425; -123.000;  -58.000
220.978;  -32.675; -393.000; -563.000
221.122;   33.175;  319.000;  307.000
221.267; -110.725; -906.000; -837.000
221.411;  -68.350; -478.000; -394.000
221.555;    0.525; -104.000;  -23.000
221.700;  -39.175; -329.000; -222.000
221.844;   30.075;  255.000;  272.000
221.989;  -35.750; -328.000; -311.000
222.133;  -33.875; -289.000; -307.000
222.277;  -10.725;    5.000;   78.000
222.422;   28.675;  227.000;  113.000
222.566;  -27.500; -381.000; -214.000
222.711;  -50.525; -414.000; -479.000
222.855;  -69.825; -643.000; -586.000
222.999;  -80.275; -642.000; -717.000
223.144;  -19.250; -195.000; -194.000
223.288;   42.075;  423.000;  251.000
223.432;   19.725;  184.000;  230.000
223.576;   31.150;  152.000;  -21.000
223.721;   41.850;  364.000;  273.000
223.865;  -55.400; -472.000; -475.000
224.009;  243.950; 1673.000; 1631.000
224.153;  -86.600; -660.000; -671.000
224.298;  -64.025; -531.000; -489.000
224.442;   -4.900;  -74.000;  -33.000
224.586;   -3.975; -169.000; -106.000
224.730;  -99.200; -858.000; -670.000
224.875;  -97.400; -739.000; -688.000
225.019;   15.475;  102.000;  188.000
225.163;   55.075;  208.000;  341.000
225.307;   18.150;   97.000;  -91.000
225.451;   31.700;  360.000;  481.000
225.595;   16.725;  264.000;  176.000
225.739;  -22.775; -170.000;  -94.000
225.884;    5.900;   86.000;    5.000
226.028;  -87.750; -760.000; -626.000
226.172;  -31.925; -260.000; -273.000
226.316; -114.075; -941.000; -902.000
226.460;  -52.350; -645.000; -493.000
226.604;  -51.800; -406.000; -400.000
226.748;  -92.000; -836.000; -733.000
226.892;  -43.275; -227.000; -181.000
227.036;  -39.975; -537.000; -447.000
227.180;  -53.900; -551.000; -375.000
227.324;  -60.850; -561.000; -580.000
227.468; -108.125; -819.000; -717.000
227.612;   10.650;  242.000;  -28.000
227.756;  -89.725; -845.000; -698.000
227.900;   52.775;  342.000;  441.000
228.044;  -57.450; -509.000; -290.000
228.188;   61.650;  448.000;  568.000
228.332;  -74.475; -546.000; -472.000
228.476;  -12.650; -223.000; -149.000
228.620;  -22.475; -210.000; -150.000
228.764;   51.450;  431.000;  349.000
228.908;   -9.125; -155.000;   30.000
229.052;  -55.450; -615.000; -528.000
229.195;  -14.875; -172.000;   13.000
229.339;  -34.300; -235.000; -305.000
229.483;  -26.325;    5.000; -162.000
229.627;    4.900; -156.000;  139.000
229.771;  -52.875; -218.000; -294.000
229.915;   23.875;  230.000;   79.000
230.059;  -87.475; -648.000; -663.000
230.202;  -33.175; -370.000; -317.000
230.346;  -25.200; -107.000;  107.000
230.490;  -48.625; -489.000; -521.000
230.634; -111.350; -736.000; -553.000
230.777;   70.450;  478.000;  509.000
230.921;  -53.375; -450.000; -359.000
231.065;  -31.800; -246.000; -286.000
231.209;   20.850;  261.000;  265.000
231.352;   20.925;   54.000;   40.000
231.496;   13.700;  568.000;  188.000
231.640;  -75.150; -693.000; -621.000
231.783;   64.225;  546.000;  525.000
231.927;  -41.775; -294.000; -365.000
232.071; -112.975; -962.000; -736.000
232.214; -112.725; -980.000; -764.000
232.358;  -94.775; -683.000; -599.000
232.502;    1.375;  -19.000;    7.000
232.645; -127.625;-1090.000; -927.000
232.789;  -17.025; -257.000; -218.000
232.933;  -44.775; -407.000; -224.000
233.076; -128.550;-1038.000; -897.000
233.220;  -95.125; -752.000; -777.000
233.363;  -70.600; -669.000; -477.000
233.507;   49.575;  371.000;  129.000
233.650;  -86.050; -764.000; -834.000
233.794;   46.675;  438.000;  461.000
233.938;  -50.700; -530.000; -362.000
234.081;  -11.350;  -93.000;   31.000
234.225;  -65.450; -631.000; -539.000
234.368; -115.000; -773.000; -723.000
234.512;  -39.000; -385.000; -299.000
234.655;  -84.200; -582.000; -555.000
234.798;  -64.050; -493.000; -466.000
234.942; -133.700; -884.000;-1002.000
235.085;  -51.525; -651.000; -443.000
235.229;  -71.725; -405.000; -410.000
235.372;  -30.000; -247.000; -191.000
235.516;  -53.450; -397.000; -321.000
235.659;   20.900;   92.000;  121.000
235.802;   -7.050;  -38.000;  -22.000
235.946;   39.100;  335.000;  215.000
236.089;   30.050;  126.000;  250.000
236.233;   54.375;  275.000;  298.000
236.376;  -34.700; -235.000; -378.000
236.519;  -40.325; -297.000; -319.000
236.663;  -29.375; -215.000; -117.000
236.806; -116.725;-1029.000; -999.000
236.949;   44.875;  543.000;  431.000
237.092;   52.525;  412.000;  391.000
237.236;  -85.100; -589.000; -502.000
237.379;   55.025;  352.000;  428.000
237.522; -102.600; -879.000; -768.000
237.666;  -26.250; -271.000;   18.000
237.809; -113.450; -851.000; -823.000
237.952;   39.150;  469.000;  271.000
238.095;  -49.300; -447.000; -442.000
238.238;   81.175;  688.000;  700.000
238.382;   -0.925;  166.000;  103.000
238.525;  -69.100; -598.000; -511.000
238.668; -139.175;-1060.000; -985.000
238.811;  -67.925; -638.000; -643.000
238.954;  -58.350; -483.000; -334.000
239.097;   94.150;  617.000;  664.000
239.241;   33.050;  394.000;  326.000
239.384;  -20.525; -254.000; -214.000
239.527;  -55.150; -424.000; -224.000
239.670; -131.325; -994.000;-1091.000
239.813; -107.850; -696.000; -658.000
239.956;   84.625;  579.000;  473.000
240.099; -100.550; -778.000; -725.000
240.242;   47.250;  428.000;  432.000
240.385;   42.125;  466.000;  450.000
240.528;  -66.200; -706.000; -473.000
240.671;   19.575;  189.000;  134.000
240.814;  -39.500; -441.000; -158.000
240.957;  -94.475; -767.000; -578.000
241.100;  -87.500; -779.000; -755.000
241.243; -138.600;-1234.000; -893.000
241.386;  -67.325; -508.000; -379.000
241.529;  -82.325; -735.000; -547.000
241.672;  -69.850; -566.000; -495.000
241.815; -113.000; -832.000; -808.000
241.958;  -18.150; -125.000; -182.000
242.101;  -78.650; -545.000; -390.000
242.244;  -38.225; -270.000; -325.000
242.387;  -42.625; -304.000; -246.000
242.530;   69.775;  470.000;  134.000
242.673;  -42.600; -381.000; -309.000
242.815; -107.375; -925.000; -899.000
242.958;  -65.375; -482.000; -381.000
243.101;    6.925;  132.000;  187.000
243.244;  -82.975; -564.000; -521.000
243.387;  -46.800; -313.000; -316.000
243.530;  -99.900; -657.000; -674.000
243.672;   20.800;   43.000;  -92.000
243.815;  -44.275; -355.000; -283.000
243.958;    3.725;   98.000;  -26.000
244.101;  -14.325;   59.000;  -16.000
244.243;  -11.775;  -47.000;  101.000
244.386; -104.950; -761.000; -630.000
244.529;  -23.200; -132.000; -139.000
244.672; -159.325;-1154.000; -951.000
244.814;  -96.400; -621.000; -794.000
244.957;  -55.875; -380.000; -304.000
245.100;  -80.775; -489.000; -489.000
245.242;  -66.650; -387.000; -374.000
245.385;    1.525;  -59.000;  -39.000
245.528; -116.225; -871.000; -705.000
245.670;   88.375;  612.000;  634.000
245.813;  -83.725; -599.000; -547.000
245.956;  -30.700; -324.000; -275.000
246.098;  -70.400; -508.000; -650.000
246.241;   10.925;  194.000;   48.000
246.383;  -20.250; -119.000;  -73.000
246.526;  -81.075; -454.000; -525.000
246.669; -116.225; -889.000; -780.000
246.811;   17.775;  172.000;   -1.000
246.954;  -51.825; -512.000; -426.000
247.096;   -8.025;  -84.000;   -6.000
247.239;  -69.625; -482.000; -445.000
247.381;  -61.450; -647.000; -488.000
247.524;   82.225;  645.000;  679.000
247.666;   -4.575;   58.000;   11.000
247.809; -115.600; -887.000; -691.000
247.951;  -10.050;  -75.000;  138.000
248.094;   37.075;  432.000;  308.000
248.236; -142.750;-1262.000;-1238.000
248.378;    9.050; -356.000;  -81.000
248.521;   -7.050; -334.000; -337.000
248.663;  -29.050; -236.000; -267.000
248.806;  -17.725; -300.000; -266.000
248.948;  -95.600; -886.000; -763.000
249.090;  -34.675; -428.000; -398.000
249.233;  -43.075; -344.000; -381.000
249.375;  -43.800; -474.000; -451.000
249.518;   -6.350;  -83.000; -133.000
249.660;   -2.625; -103.000;    3.000
249.802; -161.450;-1303.000;-1189.000
249.945;  -71.125; -612.000; -540.000
250.087;  -99.400; -834.000; -768.000
250.229;  -47.000; -362.000; -480.000
250.371;  -81.200; -494.000; -439.000
250.514;  -55.075; -310.000; -244.000
250.656;  -73.650;   69.000;  102.000
250.798; -109.900; -849.000; -800.000
250.940;  -61.750; -322.000; -322.000
251.083;  -21.075; -335.000; -111.000
251.225;   49.200;  338.000;  310.000
251.367;  -29.800; -274.000; -373.000
251.509;  -29.150; -265.000; -210.000
251.651;  -97.325; -731.000; -671.000
251.794;   48.850;  538.000;  632.000
251.936;  -94.775; -821.000; -747.000
252.078;  -75.900; -540.000; -461.000
252.220;  -74.025; -645.000; -477.000
252.362;   90.000;  344.000;  462.000
252.504;  -59.800; -677.000; -584.000
252.646; -107.825; -875.000; -722.000
252.788;    1.900;   14.000; -128.000
252.931;  -37.600; -257.000; -253.000
253.073;  -51.775; -376.000; -317.000
253.215;   -9.775;  141.000;  122.000
253.357;   -5.800;   82.000; -153.000
253.499;  -37.125; -374.000; -234.000
253.641;  -89.825; -749.000; -594.000
253.783;  -88.200; -609.000; -527.000
253.925;  -95.400; -586.000; -591.000
254.067; -101.025; -744.000; -667.000
254.209;  -26.025; -391.000; -259.000
254.351; -132.100; -865.000; -883.000
254.493;  -63.000; -441.000; -417.000
254.635; -113.175; -936.000; -818.000
254.777;  -76.025; -752.000; -687.000
254.918;  -67.250; -512.000; -430.000
255.060;  -63.775; -551.000; -395.000
255.202;  -50.675; -473.000; -261.000
255.344;  -62.925; -658.000; -455.000
255.486;  -75.375; -471.000; -406.000
255.628; -111.500; -780.000; -781.000
255.770;  -75.600; -676.000; -536.000
255.912;  -61.300; -559.000; -468.000
256.053;  -83.550; -730.000; -508.000
256.195;  144.400; 1008.000;  903.000
256.337;  -94.625; -861.000; -595.000
256.479;   66.900;  532.000;  416.000
256.621;  -49.400; -394.000; -212.000
256.762;  -85.250; -789.000; -742.000
256.904;   57.400;  485.000;  487.000
257.046;  -38.825; -381.000; -271.000
257.188;  -45.450; -351.000; -264.000
257.329;  -72.375; -525.000; -464.000
257.471; -117.550; -939.000; -807.000
257.613;  -50.175; -584.000; -498.000
257.755; -141.900;-1073.000; -982.000
257.896;   33.475;  286.000;  392.000
258.038;  -60.000; -403.000; -352.000
258.180;  -36.500; -354.000; -279.000
258.321;  -72.400; -581.000; -457.000
258.463;  -10.675;  -71.000;  133.000
258.605;  -85.350; -562.000; -570.000
258.746; -106.375; -886.000; -772.000
258.888; -144.225;-1026.000;-1020.000
259.029;   13.875;  121.000;   -8.000
259.171;  -86.500; -614.000; -550.000
259.313;   -4.650;  -49.000;  -47.000
259.454;  -76.975; -536.000; -414.000
259.596;  -37.250; -483.000; -390.000
259.737;  -74.300; -590.000; -474.000
259.879;   33.175;  217.000;  311.000
260.020;   90.450;  901.000;  636.000
260.162;  -23.225; -146.000; -253.000
260.303; -119.450; -768.000; -687.000
260.445;  -79.375; -609.000; -613.000
260.586;   27.525;  392.000;  157.000
260.728;  -30.825; -360.000; -248.000
260.869;  -71.425; -350.000; -343.000
261.011;   94.975;  706.000;  537.000
261.152;  -63.125; -479.000; -319.000
261.293;  -65.550; -576.000; -595.000
261.435;  -34.675; -219.000; -184.000
261.576;  -32.975; -455.000; -325.000
261.718;   49.600;  420.000;  470.000
261.859; -118.425; -940.000; -949.000
262.000; -119.750; -951.000;-1016.000
262.142;  -14.925;  -52.000;  -60.000
262.283; -117.275; -808.000; -691.000
262.424;  -81.925; -666.000; -625.000
262.566; -141.000;-1161.000; -983.000
262.707; -108.150; -840.000; -830.000
262.848; -121.350; -769.000; -726.000
262.990;  -49.200; -362.000; -345.000
263.131;   80.350;  650.000;  681.000
263.272;   -6.025;  -61.000;  -41.000
263.413;  -85.125; -589.000; -561.000
263.555;  -58.525; -669.000; -143.000
263.696;  -81.200; -550.000; -641.000
263.837;  -42.975; -449.000; -551.000
263.978;  -21.350;   -5.000;  -77.000
264.119;  -42.750; -283.000; -264.000
264.261; -112.950; -847.000; -630.000
264.402;   -4.875;   33.000;   40.000
264.543;  -79.650; -509.000; -524.000
264.684;   -6.100;   61.000;  -50.000
264.825;  -76.000; -816.000; -538.000
264.966;    3.650;  -84.000;  -67.000
265.107; -104.775; -646.000; -670.000
265.248; -112.725; -825.000; -812.000
265.390;   -1.800;  152.000;   -9.000
265.531;  -41.825; -238.000; -107.000
265.672;  -85.925; -557.000; -630.000
265.813;   73.775;  563.000;  439.000
265.954; -146.575; -959.000; -940.000
266.095;   -8.150; -372.000; -322.000
266.236;  -97.200; -686.000; -548.000
266.377;  -52.325; -243.000; -297.000
266.518;  -68.975; -619.000; -547.000
266.659;   21.325;  170.000;  268.000
266.800;   12.325;   83.000;   85.000
266.941;  -71.850; -487.000; -478.000
267.082;   20.025;  354.000;   99.000
267.223;  -51.900; -344.000; -273.000
267.364; -113.875; -892.000; -686.000
267.504;  -16.475;    3.000;  135.000
267.645;    0.900;  160.000;   67.000
267.786;  -36.950; -147.000;  -86.000
267.927;  -67.475; -473.000; -379.000
268.068;   -9.200; -186.000;  -61.000
268.209;  -48.975; -175.000; -413.000
268.350;  -55.825; -388.000; -532.000
268.490;  -80.800; -648.000; -521.000
268.631;   29.950;  127.000;  225.000
268.772; -108.450; -874.000; -647.000
268.913;  -41.175; -328.000; -476.000
269.054;  -19.000; -117.000;   12.000
269.194;  -47.725; -418.000; -402.000
269.335; -149.775;-1137.000;-1074.000
269.476;  -10.950;   33.000;  -35.000
269.617;  -51.825; -347.000; -392.000
269.757;  -78.275; -713.000; -646.000
269.898; -101.700; -856.000; -613.000
270.039;  -48.025; -415.000; -405.000
270.180; -138.550; -952.000; -816.000
270.320;  -18.625; -190.000; -250.000
