
Integration time [ms]: 100.000
Averaging Nr. [scans]: 40
Smoothing Nr. [pixels]: 0
Data measured with spectrometer [name]: 2101012U2
Wave   ;Sample   ;Dark     ;Reference
[nm]   ;[counts] ;[counts] ;[counts] 

197.733;   61.275;  516.000;  404.000
197.879;  -88.025; -610.000; -634.000
198.025;  -40.575; -475.000; -420.000
198.171;  -61.950; -602.000; -612.000
198.317;  -34.925; -401.000; -316.000
198.463;  -46.775; -655.000; -404.000
198.609;   29.250;  181.000; -137.000
198.755;  -78.425; -644.000; -410.000
198.901;  -69.375; -505.000; -424.000
199.047;  -57.225; -615.000; -488.000
199.193;  -44.600; -230.000; -468.000
199.339;  -36.900; -222.000; -369.000
199.485;   52.725;  330.000;  271.000
199.631;   25.625;  227.000;  310.000
199.777;  -48.125; -466.000; -398.000
199.923;  -53.600; -610.000; -424.000
200.069;    4.000; -141.000;  -58.000
200.215;   56.875;  128.000;  453.000
200.361;   47.875;  243.000;  477.000
200.507;  -58.875; -600.000; -373.000
200.653;  -19.225; -371.000; -194.000
200.798;  -21.700; -215.000; -125.000
200.944;    4.600; -146.000;  -41.000
201.090;   47.125;   61.000;  222.000
201.236;    4.200; -116.000; -158.000
201.382;  141.525;  874.000;  903.000
201.528;    1.025;  -58.000;  -48.000
201.674;  -38.750; -386.000; -293.000
201.819;  -59.225; -540.000; -439.000
201.965;  -70.050; -699.000; -447.000
202.111;  -20.825; -273.000; -226.000
202.257;  -37.675; -250.000; -238.000
202.402;   13.650;   13.000;  -36.000
202.548;  -33.375; -169.000; -116.000
202.694;   86.475;  410.000; -183.000
202.840;  -68.425; -603.000; -531.000
202.985;  -76.850; -681.000; -639.000
203.131;  -96.925; -832.000; -666.000
203.277;  -21.550; -199.000; -262.000
203.423;  -44.650; -434.000; -520.000
203.568;  -43.450; -462.000; -237.000
203.714;  -50.925; -535.000; -542.000
203.860;  -89.475; -682.000; -641.000
204.005;   14.325;  112.000;  167.000
204.151;   78.550;  561.000;  556.000
204.296;  -27.800; -354.000; -221.000
204.442;  -71.525; -600.000; -547.000
204.588;  -87.525; -592.000; -579.000
204.733;   28.725;  178.000;  168.000
204.879; -121.100;-1018.000; -822.000
205.025;   16.975;  -99.000;  126.000
205.170;   11.775;  -17.000;   94.000
205.316;   85.000;  438.000;  661.000
205.461;  -85.700; -698.000; -554.000
205.607;   99.425;  609.000;  665.000
205.752;  -76.000; -626.000; -551.000
205.898;  -50.025; -501.000; -391.000
206.043;  -73.475; -578.000; -506.000
206.189;  -42.300; -243.000; -285.000
206.334;   70.450;  554.000;  606.000
206.480;   81.700;  409.000;  239.000
206.625;  -80.200; -529.000; -552.000
206.771;  -54.250; -451.000; -373.000
206.916;  -39.875; -210.000; -537.000
207.062;  -71.850; -545.000; -591.000
207.207;  -65.075; -546.000; -443.000
207.353;   49.800;  185.000;  460.000
207.498;    9.725;  196.000;   85.000
207.643;  -42.775; -501.000; -370.000
207.789; -144.575;-1069.000; -910.000
207.934;  -95.050; -665.000; -713.000
208.080;  -37.575; -154.000;   66.000
208.225;   -6.175;  -22.000;  -57.000
208.370;  -86.000; -727.000; -619.000
208.516;  -77.925; -741.000; -487.000
208.661;  -27.225; -127.000;  -69.000
208.806;  -13.275; -165.000; -171.000
208.952; -103.750;-1044.000; -731.000
209.097;   84.300;  378.000;  349.000
209.242;  -39.100; -307.000; -382.000
209.387;   76.375;  392.000;  350.000
209.533;  -60.175; -321.000; -350.000
209.678;   66.550;  472.000;  543.000
209.823;  -49.550; -408.000; -310.000
209.969;  -89.825; -860.000; -757.000
210.114; -108.925; -907.000; -719.000
210.259; -103.625; -939.000; -889.000
210.404;  -15.225; -171.000;  103.000
210.549;    6.250;  108.000;    3.000
210.695;   -0.725;   -3.000;  -95.000
210.840;   26.225;   94.000;   67.000
210.985;  -64.425; -484.000; -303.000
211.130;   89.300;  268.000;  406.000
211.275;   23.350;  207.000;  199.000
211.420;  -59.775; -300.000; -289.000
211.566;  -65.200; -536.000; -489.000
211.711;   24.675;  218.000;  157.000
211.856;  -56.150; -545.000; -519.000
212.001;   16.800;  151.000;   44.000
212.146;   26.625;  153.000;   49.000
212.291;  -15.400; -210.000; -186.000
212.436;  -20.675; -280.000;   -6.000
212.581;  -84.400; -685.000; -653.000
212.726;  -78.175; -487.000; -538.000
212.871;  -43.725; -552.000; -217.000
213.016; -148.725;-1172.000;-1029.000
213.161;   73.325;  406.000;  291.000
213.306;  -74.425; -435.000; -577.000
213.451;  -78.400; -778.000; -689.000
213.596;  -41.100; -455.000; -347.000
213.741;  -61.200; -448.000; -538.000
213.886;  -77.900; -498.000; -517.000
214.031;  -11.925; -294.000; -124.000
214.176;  -49.925; -408.000; -341.000
214.321;   -7.000; -296.000; -157.000
214.466;  -24.875; -163.000;  -43.000
214.611;    3.225;  -61.000;  -10.000
214.756; -123.150; -948.000; -858.000
214.901;  -23.500; -388.000; -226.000
215.046; -112.275; -797.000; -825.000
215.191;   20.475;  128.000;   35.000
215.336;  -15.400; -157.000;  -19.000
215.480;  -69.375; -684.000; -505.000
215.625;   -4.275; -175.000;  -19.000
215.770;  -82.000; -757.000; -662.000
215.915;   -5.925;   -5.000;  -97.000
216.060;   11.775; -113.000;  -21.000
216.205; -106.325; -731.000; -779.000
216.349;  -72.425; -470.000; -533.000
216.494; -129.100; -939.000; -867.000
216.639; -109.700; -823.000; -888.000
216.784;  -86.275; -577.000; -525.000
216.929;   62.950;  392.000;  281.000
217.073;    8.300; -244.000;  -31.000
217.218;    4.650;   78.000;  -47.000
217.363;  -77.025; -656.000; -618.000
217.507;  -80.525; -623.000; -588.000
217.652; -133.050; -845.000; -874.000
217.797;  -83.225; -708.000; -659.000
217.942; -116.450; -856.000; -720.000
218.086;   70.750;  608.000;  539.000
218.231;  -12.350; -174.000;  -26.000
218.376;  -13.850; -337.000; -229.000
218.520;   -0.950;  -41.000;   96.000
218.665;  -48.975; -338.000; -204.000
218.810;  -42.000; -275.000; -233.000
218.954;   22.725;  201.000;   35.000
219.099; -105.250; -713.000; -963.000
219.243;  -74.825; -589.000; -554.000
219.388;  -28.575; -264.000; -136.000
219.532;    0.025; -116.000; -116.000
219.677;  -70.825; -564.000; -521.000
219.822;   25.450;   33.000;   89.000
219.966;    7.700;   17.000;  -99.000
220.111;  -34.275; -328.000;  -40.000
220.255;  -93.100; -797.000; -750.000
220.400;  -22.400; -180.000; -146.000
220.544;  -75.025; -516.000; -450.000
220.689;  -46.750; -422.000; -451.000
220.833;  -19.250; -123.000;  -58.000
220.978;  -39.625; -393.000; -563.000
221.122;   34.475;  319.000;  307.000
221.267; -111.025; -906.000; -837.000
221.411;  -71.075; -478.000; -394.000
221.555;   -3.875; -104.000;  -23.000
221.700;  -57.300; -329.000; -222.000
221.844;   50.700;  255.000;  272.000
221.989;  -53.550; -328.000; -311.000
222.133;  -29.300; -289.000; -307.000
222.277;   -0.875;    5.000;   78.000
222.422;   22.350;  227.000;  113.000
222.566;  -36.700; -381.000; -214.000
222.711;  -50.950; -414.000; -479.000
222.855;  -92.000; -643.000; -586.000
222.999;  -73.600; -642.000; -717.000
223.144;  -32.875; -195.000; -194.000
223.288;   52.725;  423.000;  251.000
223.432;   21.000;  184.000;  230.000
223.576;   30.425;  152.000;  -21.000
223.721;   47.950;  364.000;  273.000
223.865;  -50.025; -472.000; -475.000
224.009;  231.750; 1673.000; 1631.000
224.153;  -80.425; -660.000; -671.000
224.298;  -66.825; -531.000; -489.000
224.442;  -15.250;  -74.000;  -33.000
224.586;   -7.700; -169.000; -106.000
224.730;  -94.875; -858.000; -670.000
224.875; -104.725; -739.000; -688.000
225.019;   24.000;  102.000;  188.000
225.163;   45.425;  208.000;  341.000
225.307;   28.425;   97.000;  -91.000
225.451;   54.525;  360.000;  481.000
225.595;   21.675;  264.000;  176.000
225.739;  -14.450; -170.000;  -94.000
225.884;    2.400;   86.000;    5.000
226.028;  -91.000; -760.000; -626.000
226.172;  -32.425; -260.000; -273.000
226.316; -125.375; -941.000; -902.000
226.460;  -63.450; -645.000; -493.000
226.604;  -65.200; -406.000; -400.000
226.748;  -92.125; -836.000; -733.000
226.892;  -34.075; -227.000; -181.000
227.036;  -54.500; -537.000; -447.000
227.180;  -52.525; -551.000; -375.000
227.324;  -74.950; -561.000; -580.000
227.468; -117.150; -819.000; -717.000
227.612;   32.125;  242.000;  -28.000
227.756;  -90.225; -845.000; -698.000
227.900;   64.475;  342.000;  441.000
228.044;  -64.725; -509.000; -290.000
228.188;   56.425;  448.000;  568.000
228.332;  -91.250; -546.000; -472.000
228.476;  -25.125; -223.000; -149.000
228.620;  -39.075; -210.000; -150.000
228.764;   59.375;  431.000;  349.000
228.908;  -17.875; -155.000;   30.000
229.052;  -66.150; -615.000; -528.000
229.195;   -9.025; -172.000;   13.000
229.339;  -23.550; -235.000; -305.000
229.483;  -27.675;    5.000; -162.000
229.627;   -1.325; -156.000;  139.000
229.771;  -27.725; -218.000; -294.000
229.915;   20.275;  230.000;   79.000
230.059;  -84.025; -648.000; -663.000
230.202;  -24.625; -370.000; -317.000
230.346;  -14.000; -107.000;  107.000
230.490;  -62.200; -489.000; -521.000
230.634; -104.600; -736.000; -553.000
230.777;   79.025;  478.000;  509.000
230.921;  -61.825; -450.000; -359.000
231.065;  -41.150; -246.000; -286.000
231.209;   32.250;  261.000;  265.000
231.352;   24.475;   54.000;   40.000
231.496;   25.375;  568.000;  188.000
231.640;  -74.825; -693.000; -621.000
231.783;   68.450;  546.000;  525.000
231.927;  -40.350; -294.000; -365.000
232.071; -132.700; -962.000; -736.000
232.214; -111.250; -980.000; -764.000
232.358; -105.950; -683.000; -599.000
232.502;    5.450;  -19.000;    7.000
232.645; -138.475;-1090.000; -927.000
232.789;  -15.475; -257.000; -218.000
232.933;  -41.075; -407.000; -224.000
233.076; -129.025;-1038.000; -897.000
233.220; -103.950; -752.000; -777.000
233.363;  -62.125; -669.000; -477.000
233.507;   60.675;  371.000;  129.000
233.650; -101.250; -764.000; -834.000
233.794;   51.525;  438.000;  461.000
233.938;  -58.350; -530.000; -362.000
234.081;  -15.625;  -93.000;   31.000
234.225;  -64.475; -631.000; -539.000
234.368; -112.475; -773.000; -723.000
234.512;  -33.475; -385.000; -299.000
234.655;  -95.375; -582.000; -555.000
234.798;  -55.400; -493.000; -466.000
234.942; -128.275; -884.000;-1002.000
235.085;  -86.350; -651.000; -443.000
235.229;  -69.825; -405.000; -410.000
235.372;  -47.575; -247.000; -191.000
235.516;  -59.700; -397.000; -321.000
235.659;   28.825;   92.000;  121.000
235.802;  -21.125;  -38.000;  -22.000
235.946;   24.600;  335.000;  215.000
236.089;   24.975;  126.000;  250.000
236.233;   57.675;  275.000;  298.000
236.376;  -41.725; -235.000; -378.000
236.519;  -43.525; -297.000; -319.000
236.663;  -15.400; -215.000; -117.000
236.806; -130.025;-1029.000; -999.000
236.949;   61.900;  543.000;  431.000
237.092;   69.250;  412.000;  391.000
237.236;  -82.525; -589.000; -502.000
237.379;   73.975;  352.000;  428.000
237.522; -104.625; -879.000; -768.000
237.666;  -18.775; -271.000;   18.000
237.809; -127.850; -851.000; -823.000
237.952;   44.900;  469.000;  271.000
238.095;  -55.150; -447.000; -442.000
238.238;   73.900;  688.000;  700.000
238.382;    2.825;  166.000;  103.000
238.525;  -70.975; -598.000; -511.000
238.668; -137.650;-1060.000; -985.000
238.811;  -86.375; -638.000; -643.000
238.954;  -57.250; -483.000; -334.000
239.097;   87.525;  617.000;  664.000
239.241;   22.400;  394.000;  326.000
239.384;  -29.075; -254.000; -214.000
239.527;  -63.725; -424.000; -224.000
239.670; -135.375; -994.000;-1091.000
239.813; -106.625; -696.000; -658.000
239.956;   88.475;  579.000;  473.000
240.099; -128.775; -778.000; -725.000
240.242;   64.575;  428.000;  432.000
240.385;   51.900;  466.000;  450.000
240.528;  -66.100; -706.000; -473.000
240.671;   16.025;  189.000;  134.000
240.814;  -33.425; -441.000; -158.000
240.957;  -97.975; -767.000; -578.000
241.100;  -93.400; -779.000; -755.000
241.243; -142.675;-1234.000; -893.000
241.386;  -53.225; -508.000; -379.000
241.529;  -85.925; -735.000; -547.000
241.672;  -69.000; -566.000; -495.000
241.815; -112.050; -832.000; -808.000
241.958;  -18.125; -125.000; -182.000
242.101;  -82.175; -545.000; -390.000
242.244;  -41.150; -270.000; -325.000
242.387;  -40.925; -304.000; -246.000
242.530;   54.250;  470.000;  134.000
242.673;  -52.500; -381.000; -309.000
242.815; -132.950; -925.000; -899.000
242.958;  -69.450; -482.000; -381.000
243.101;   24.975;  132.000;  187.000
243.244;  -79.250; -564.000; -521.000
243.387;  -37.525; -313.000; -316.000
243.530;  -84.175; -657.000; -674.000
243.672;   14.100;   43.000;  -92.000
243.815;  -44.450; -355.000; -283.000
243.958;    1.900;   98.000;  -26.000
244.101;    4.075;   59.000;  -16.000
244.243;  -18.350;  -47.000;  101.000
244.386; -114.000; -761.000; -630.000
244.529;  -25.375; -132.000; -139.000
244.672; -152.525;-1154.000; -951.000
244.814;  -91.950; -621.000; -794.000
244.957;  -63.025; -380.000; -304.000
245.100;  -73.025; -489.000; -489.000
245.242;  -59.775; -387.000; -374.000
245.385;   -9.675;  -59.000;  -39.000
245.528; -127.700; -871.000; -705.000
245.670;   91.600;  612.000;  634.000
245.813;  -84.650; -599.000; -547.000
245.956;  -26.900; -324.000; -275.000
246.098;  -69.100; -508.000; -650.000
246.241;   15.600;  194.000;   48.000
246.383;  -21.150; -119.000;  -73.000
246.526;  -65.100; -454.000; -525.000
246.669; -123.250; -889.000; -780.000
246.811;   16.425;  172.000;   -1.000
246.954;  -68.675; -512.000; -426.000
247.096;  -19.650;  -84.000;   -6.000
247.239;  -72.425; -482.000; -445.000
247.381;  -70.675; -647.000; -488.000
247.524;   87.550;  645.000;  679.000
247.666;   -0.725;   58.000;   11.000
247.809; -117.925; -887.000; -691.000
247.951;   -6.425;  -75.000;  138.000
248.094;   32.550;  432.000;  308.000
248.236; -151.575;-1262.000;-1238.000
248.378;   13.675; -356.000;  -81.000
248.521;  -12.625; -334.000; -337.000
248.663;  -41.575; -236.000; -267.000
248.806;  -12.600; -300.000; -266.000
248.948; -102.475; -886.000; -763.000
249.090;  -51.875; -428.000; -398.000
249.233;  -50.850; -344.000; -381.000
249.375;  -69.625; -474.000; -451.000
249.518;   -9.050;  -83.000; -133.000
249.660;   -3.725; -103.000;    3.000
249.802; -161.250;-1303.000;-1189.000
249.945;  -66.250; -612.000; -540.000
250.087; -109.025; -834.000; -768.000
250.229;  -45.525; -362.000; -480.000
250.371;  -74.800; -494.000; -439.000
250.514;  -54.025; -310.000; -244.000
250.656;  -63.850;   69.000;  102.000
250.798; -127.375; -849.000; -800.000
250.940;  -61.500; -322.000; -322.000
251.083;  -25.300; -335.000; -111.000
251.225;   62.425;  338.000;  310.000
251.367;  -30.975; -274.000; -373.000
251.509;  -25.300; -265.000; -210.000
251.651;  -92.050; -731.000; -671.000
251.794;   56.650;  538.000;  632.000
251.936; -108.950; -821.000; -747.000
252.078;  -66.200; -540.000; -461.000
252.220;  -66.675; -645.000; -477.000
252.362;   99.450;  344.000;  462.000
252.504;  -63.675; -677.000; -584.000
252.646; -107.025; -875.000; -722.000
252.788;   -7.050;   14.000; -128.000
252.931;  -49.175; -257.000; -253.000
253.073;  -34.425; -376.000; -317.000
253.215;  -10.000;  141.000;  122.000
253.357;  -16.000;   82.000; -153.000
253.499;  -65.800; -374.000; -234.000
253.641;  -82.375; -749.000; -594.000
253.783;  -85.875; -609.000; -527.000
253.925;  -73.900; -586.000; -591.000
254.067;  -99.425; -744.000; -667.000
254.209;  -22.175; -391.000; -259.000
254.351; -142.000; -865.000; -883.000
254.493;  -59.550; -441.000; -417.000
254.635; -127.750; -936.000; -818.000
254.777;  -74.000; -752.000; -687.000
254.918;  -60.575; -512.000; -430.000
255.060;  -51.925; -551.000; -395.000
255.202;  -65.950; -473.000; -261.000
255.344;  -62.750; -658.000; -455.000
255.486;  -73.000; -471.000; -406.000
255.628; -104.450; -780.000; -781.000
255.770;  -83.800; -676.000; -536.000
255.912;  -50.925; -559.000; -468.000
256.053;  -81.300; -730.000; -508.000
256.195;  168.375; 1008.000;  903.000
256.337;  -96.250; -861.000; -595.000
256.479;   72.300;  532.000;  416.000
256.621;  -40.125; -394.000; -212.000
256.762; -101.550; -789.000; -742.000
256.904;   55.475;  485.000;  487.000
257.046;  -35.325; -381.000; -271.000
257.188;  -38.550; -351.000; -264.000
257.329;  -77.875; -525.000; -464.000
257.471; -115.750; -939.000; -807.000
257.613;  -63.950; -584.000; -498.000
257.755; -143.575;-1073.000; -982.000
257.896;   29.875;  286.000;  392.000
258.038;  -71.025; -403.000; -352.000
258.180;  -36.200; -354.000; -279.000
258.321;  -87.300; -581.000; -457.000
258.463;    3.250;  -71.000;  133.000
258.605;  -90.875; -562.000; -570.000
258.746;  -85.975; -886.000; -772.000
258.888; -158.000;-1026.000;-1020.000
259.029;   27.750;  121.000;   -8.000
259.171;  -94.850; -614.000; -550.000
259.313;    4.950;  -49.000;  -47.000
259.454;  -61.425; -536.000; -414.000
259.596;  -57.375; -483.000; -390.000
259.737;  -72.650; -590.000; -474.000
259.879;   40.875;  217.000;  311.000
260.020;   81.025;  901.000;  636.000
260.162;  -30.525; -146.000; -253.000
260.303; -116.100; -768.000; -687.000
260.445;  -74.725; -609.000; -613.000
260.586;   24.425;  392.000;  157.000
260.728;  -47.675; -360.000; -248.000
260.869;  -79.650; -350.000; -343.000
261.011;   99.550;  706.000;  537.000
261.152;  -72.325; -479.000; -319.000
261.293;  -73.850; -576.000; -595.000
261.435;  -31.175; -219.000; -184.000
261.576;  -40.450; -455.000; -325.000
261.718;   59.775;  420.000;  470.000
261.859; -119.950; -940.000; -949.000
262.000; -130.850; -951.000;-1016.000
262.142;  -17.850;  -52.000;  -60.000
262.283; -114.525; -808.000; -691.000
262.424;  -97.575; -666.000; -625.000
262.566; -146.925;-1161.000; -983.000
262.707; -107.250; -840.000; -830.000
262.848; -127.250; -769.000; -726.000
262.990;  -42.175; -362.000; -345.000
263.131;   87.950;  650.000;  681.000
263.272;   -0.500;  -61.000;  -41.000
263.413; -104.025; -589.000; -561.000
263.555;  -73.325; -669.000; -143.000
263.696;  -90.900; -550.000; -641.000
263.837;  -46.050; -449.000; -551.000
263.978;   -0.075;   -5.000;  -77.000
264.119;  -39.800; -283.000; -264.000
264.261; -118.750; -847.000; -630.000
264.402;    3.175;   33.000;   40.000
264.543;  -86.675; -509.000; -524.000
264.684;  -11.000;   61.000;  -50.000
264.825;  -70.925; -816.000; -538.000
264.966;    8.500;  -84.000;  -67.000
265.107; -108.800; -646.000; -670.000
265.248; -124.950; -825.000; -812.000
265.390;  -10.375;  152.000;   -9.000
265.531;  -21.300; -238.000; -107.000
265.672;  -86.525; -557.000; -630.000
265.813;   64.250;  563.000;  439.000
265.954; -173.625; -959.000; -940.000
266.095;  -22.425; -372.000; -322.000
266.236;  -94.000; -686.000; -548.000
266.377;  -46.575; -243.000; -297.000
266.518;  -86.100; -619.000; -547.000
266.659;   43.550;  170.000;  268.000
266.800;    6.600;   83.000;   85.000
266.941;  -81.300; -487.000; -478.000
267.082;   32.500;  354.000;   99.000
267.223;  -52.525; -344.000; -273.000
267.364; -113.750; -892.000; -686.000
267.504;   -3.425;    3.000;  135.000
267.645;   -2.525;  160.000;   67.000
267.786;  -19.175; -147.000;  -86.000
267.927;  -84.000; -473.000; -379.000
268.068;  -15.450; -186.000;  -61.000
268.209;  -49.200; -175.000; -413.000
268.350;  -60.950; -388.000; -532.000
268.490;  -87.075; -648.000; -521.000
268.631;   37.775;  127.000;  225.000
268.772; -105.625; -874.000; -647.000
268.913;  -43.850; -328.000; -476.000
269.054;   -2.125; -117.000;   12.000
269.194;  -36.875; -418.000; -402.000
269.335; -150.500;-1137.000;-1074.000
269.476;   -7.425;   33.000;  -35.000
269.617;  -43.775; -347.000; -392.000
269.757;  -89.075; -713.000; -646.000
269.898; -100.425; -856.000; -613.000
270.039;  -60.275; -415.000; -405.000
270.180; -128.300; -952.000; -816.000
270.320;  -30.550; -190.000; -250.000
