
Integration time [ms]: 100.000
Averaging Nr. [scans]: 40
Smoothing Nr. [pixels]: 0
Data measured with spectrometer [name]: 2101012U2
Wave   ;Sample   ;Dark     ;Reference
[nm]   ;[counts] ;[counts] ;[counts] 

197.733;   60.725;  516.000;  404.000
197.879;  -94.025; -610.000; -634.000
198.025;  -45.625; -475.000; -420.000
198.171;  -65.075; -602.000; -612.000
198.317;  -22.175; -401.000; -316.000
198.463;  -56.700; -655.000; -404.000
198.609;   18.825;  181.000; -137.000
198.755;  -77.475; -644.000; -410.000
198.901;  -67.900; -505.000; -424.000
199.047;  -58.800; -615.000; -488.000
199.193;  -36.275; -230.000; -468.000
199.339;  -31.575; -222.000; -369.000
199.485;   36.575;  330.000;  271.000
199.631;   17.500;  227.000;  310.000
199.777;  -44.075; -466.000; -398.000
199.923;  -66.325; -610.000; -424.000
200.069;    8.000; -141.000;  -58.000
200.215;   58.150;  128.000;  453.000
200.361;   47.950;  243.000;  477.000
200.507;  -60.900; -600.000; -373.000
200.653;  -23.175; -371.000; -194.000
200.798;  -44.150; -215.000; -125.000
200.944;  -12.700; -146.000;  -41.000
201.090;   42.850;   61.000;  222.000
201.236;   -6.000; -116.000; -158.000
201.382;  120.350;  874.000;  903.000
201.528;    8.100;  -58.000;  -48.000
201.674;  -54.175; -386.000; -293.000
201.819;  -55.100; -540.000; -439.000
201.965;  -84.400; -699.000; -447.000
202.111;  -18.500; -273.000; -226.000
202.257;  -27.475; -250.000; -238.000
202.402;    2.150;   13.000;  -36.000
202.548;  -35.025; -169.000; -116.000
202.694;   87.025;  410.000; -183.000
202.840;  -76.325; -603.000; -531.000
202.985;  -71.250; -681.000; -639.000
203.131; -104.100; -832.000; -666.000
203.277;  -19.850; -199.000; -262.000
203.423;  -50.225; -434.000; -520.000
203.568;  -32.375; -462.000; -237.000
203.714;  -66.800; -535.000; -542.000
203.860;  -69.025; -682.000; -641.000
204.005;   11.650;  112.000;  167.000
204.151;   75.700;  561.000;  556.000
204.296;  -54.175; -354.000; -221.000
204.442;  -73.650; -600.000; -547.000
204.588;  -71.850; -592.000; -579.000
204.733;    9.500;  178.000;  168.000
204.879; -136.475;-1018.000; -822.000
205.025;   11.050;  -99.000;  126.000
205.170;    3.900;  -17.000;   94.000
205.316;   81.025;  438.000;  661.000
205.461;  -80.125; -698.000; -554.000
205.607;   88.550;  609.000;  665.000
205.752;  -72.625; -626.000; -551.000
205.898;  -46.600; -501.000; -391.000
206.043;  -57.975; -578.000; -506.000
206.189;  -27.525; -243.000; -285.000
206.334;   68.725;  554.000;  606.000
206.480;   84.925;  409.000;  239.000
206.625;  -92.225; -529.000; -552.000
206.771;  -52.025; -451.000; -373.000
206.916;  -28.650; -210.000; -537.000
207.062;  -65.450; -545.000; -591.000
207.207;  -64.825; -546.000; -443.000
207.353;   47.550;  185.000;  460.000
207.498;   17.000;  196.000;   85.000
207.643;  -48.650; -501.000; -370.000
207.789; -130.400;-1069.000; -910.000
207.934;  -88.175; -665.000; -713.000
208.080;  -34.075; -154.000;   66.000
208.225;   -5.000;  -22.000;  -57.000
208.370;  -82.350; -727.000; -619.000
208.516;  -63.350; -741.000; -487.000
208.661;  -32.725; -127.000;  -69.000
208.806;  -13.900; -165.000; -171.000
208.952; -130.900;-1044.000; -731.000
209.097;   84.075;  378.000;  349.000
209.242;  -44.075; -307.000; -382.000
209.387;   59.250;  392.000;  350.000
209.533;  -57.025; -321.000; -350.000
209.678;   93.600;  472.000;  543.000
209.823;  -62.900; -408.000; -310.000
209.969;  -83.350; -860.000; -757.000
210.114; -110.925; -907.000; -719.000
210.259; -103.625; -939.000; -889.000
210.404;  -10.350; -171.000;  103.000
210.549;   11.250;  108.000;    3.000
210.695;  -11.800;   -3.000;  -95.000
210.840;   30.175;   94.000;   67.000
210.985;  -59.050; -484.000; -303.000
211.130;   66.125;  268.000;  406.000
211.275;   11.525;  207.000;  199.000
211.420;  -47.250; -300.000; -289.000
211.566;  -73.025; -536.000; -489.000
211.711;   31.175;  218.000;  157.000
211.856;  -67.225; -545.000; -519.000
212.001;   17.950;  151.000;   44.000
212.146;   20.100;  153.000;   49.000
212.291;  -13.900; -210.000; -186.000
212.436;  -27.925; -280.000;   -6.000
212.581;  -82.550; -685.000; -653.000
212.726;  -83.100; -487.000; -538.000
212.871;  -48.625; -552.000; -217.000
213.016; -151.450;-1172.000;-1029.000
213.161;   67.425;  406.000;  291.000
213.306;  -80.425; -435.000; -577.000
213.451; -102.575; -778.000; -689.000
213.596;  -40.750; -455.000; -347.000
213.741;  -45.675; -448.000; -538.000
213.886;  -72.775; -498.000; -517.000
214.031;  -19.025; -294.000; -124.000
214.176;  -46.650; -408.000; -341.000
214.321;  -19.425; -296.000; -157.000
214.466;  -18.550; -163.000;  -43.000
214.611;    3.400;  -61.000;  -10.000
214.756; -119.750; -948.000; -858.000
214.901;  -17.600; -388.000; -226.000
215.046; -120.325; -797.000; -825.000
215.191;   27.775;  128.000;   35.000
215.336;  -24.375; -157.000;  -19.000
215.480;  -71.275; -684.000; -505.000
215.625;  -22.925; -175.000;  -19.000
215.770;  -81.850; -757.000; -662.000
215.915;   -1.300;   -5.000;  -97.000
216.060;   -4.950; -113.000;  -21.000
216.205; -111.300; -731.000; -779.000
216.349;  -59.325; -470.000; -533.000
216.494; -128.250; -939.000; -867.000
216.639; -111.675; -823.000; -888.000
216.784;  -82.925; -577.000; -525.000
216.929;   49.300;  392.000;  281.000
217.073;  -13.850; -244.000;  -31.000
217.218;    1.375;   78.000;  -47.000
217.363;  -83.925; -656.000; -618.000
217.507;  -82.000; -623.000; -588.000
217.652; -132.125; -845.000; -874.000
217.797;  -77.000; -708.000; -659.000
217.942; -123.925; -856.000; -720.000
218.086;   81.000;  608.000;  539.000
218.231;   -2.425; -174.000;  -26.000
218.376;  -48.525; -337.000; -229.000
218.520;   -6.075;  -41.000;   96.000
218.665;  -19.150; -338.000; -204.000
218.810;  -51.400; -275.000; -233.000
218.954;   26.475;  201.000;   35.000
219.099; -105.525; -713.000; -963.000
219.243;  -53.025; -589.000; -554.000
219.388;  -38.850; -264.000; -136.000
219.532;   -1.525; -116.000; -116.000
219.677;  -75.550; -564.000; -521.000
219.822;    1.775;   33.000;   89.000
219.966;  -12.850;   17.000;  -99.000
220.111;  -15.050; -328.000;  -40.000
220.255;  -84.325; -797.000; -750.000
220.400;  -17.150; -180.000; -146.000
220.544;  -65.075; -516.000; -450.000
220.689;  -50.000; -422.000; -451.000
220.833;  -20.600; -123.000;  -58.000
220.978;  -49.525; -393.000; -563.000
221.122;    8.075;  319.000;  307.000
221.267; -106.275; -906.000; -837.000
221.411;  -76.425; -478.000; -394.000
221.555;    5.850; -104.000;  -23.000
221.700;  -49.175; -329.000; -222.000
221.844;   22.825;  255.000;  272.000
221.989;  -49.725; -328.000; -311.000
222.133;  -40.900; -289.000; -307.000
222.277;  -14.175;    5.000;   78.000
222.422;   24.175;  227.000;  113.000
222.566;  -32.525; -381.000; -214.000
222.711;  -45.400; -414.000; -479.000
222.855;  -75.425; -643.000; -586.000
222.999;  -71.225; -642.000; -717.000
223.144;  -41.275; -195.000; -194.000
223.288;   54.400;  423.000;  251.000
223.432;   25.550;  184.000;  230.000
223.576;   15.350;  152.000;  -21.000
223.721;   39.175;  364.000;  273.000
223.865;  -56.725; -472.000; -475.000
224.009;  210.800; 1673.000; 1631.000
224.153;  -72.800; -660.000; -671.000
224.298;  -77.175; -531.000; -489.000
224.442;  -10.325;  -74.000;  -33.000
224.586;   -5.000; -169.000; -106.000
224.730;  -89.625; -858.000; -670.000
224.875; -110.000; -739.000; -688.000
225.019;   16.550;  102.000;  188.000
225.163;   45.975;  208.000;  341.000
225.307;   19.975;   97.000;  -91.000
225.451;   42.000;  360.000;  481.000
225.595;   37.100;  264.000;  176.000
225.739;  -11.075; -170.000;  -94.000
225.884;   10.075;   86.000;    5.000
226.028; -101.050; -760.000; -626.000
226.172;  -21.200; -260.000; -273.000
226.316; -118.075; -941.000; -902.000
226.460;  -64.775; -645.000; -493.000
226.604;  -53.875; -406.000; -400.000
226.748;  -98.475; -836.000; -733.000
226.892;  -36.075; -227.000; -181.000
227.036;  -41.425; -537.000; -447.000
227.180;  -65.300; -551.000; -375.000
227.324;  -62.775; -561.000; -580.000
227.468; -122.200; -819.000; -717.000
227.612;   10.025;  242.000;  -28.000
227.756; -105.000; -845.000; -698.000
227.900;   50.600;  342.000;  441.000
228.044;  -65.025; -509.000; -290.000
228.188;   55.050;  448.000;  568.000
228.332;  -82.900; -546.000; -472.000
228.476;  -20.925; -223.000; -149.000
228.620;  -16.700; -210.000; -150.000
228.764;   68.075;  431.000;  349.000
228.908;  -34.450; -155.000;   30.000
229.052;  -60.225; -615.000; -528.000
229.195;  -20.800; -172.000;   13.000
229.339;  -24.825; -235.000; -305.000
229.483;  -23.750;    5.000; -162.000
229.627;    4.475; -156.000;  139.000
229.771;  -40.575; -218.000; -294.000
229.915;    8.550;  230.000;   79.000
230.059; -100.400; -648.000; -663.000
230.202;  -40.650; -370.000; -317.000
230.346;  -10.525; -107.000;  107.000
230.490;  -66.700; -489.000; -521.000
230.634; -124.675; -736.000; -553.000
230.777;   77.275;  478.000;  509.000
230.921;  -65.325; -450.000; -359.000
231.065;  -38.950; -246.000; -286.000
231.209;   14.700;  261.000;  265.000
231.352;   22.650;   54.000;   40.000
231.496;   28.900;  568.000;  188.000
231.640;  -75.200; -693.000; -621.000
231.783;   69.200;  546.000;  525.000
231.927;  -40.925; -294.000; -365.000
232.071; -128.025; -962.000; -736.000
232.214; -112.175; -980.000; -764.000
232.358; -102.225; -683.000; -599.000
232.502;   -2.075;  -19.000;    7.000
232.645; -135.375;-1090.000; -927.000
232.789;  -19.725; -257.000; -218.000
232.933;  -41.450; -407.000; -224.000
233.076; -119.850;-1038.000; -897.000
233.220; -114.525; -752.000; -777.000
233.363;  -70.225; -669.000; -477.000
233.507;   46.075;  371.000;  129.000
233.650;  -85.000; -764.000; -834.000
233.794;   45.675;  438.000;  461.000
233.938;  -57.000; -530.000; -362.000
234.081;  -21.125;  -93.000;   31.000
234.225;  -69.275; -631.000; -539.000
234.368; -108.425; -773.000; -723.000
234.512;  -36.125; -385.000; -299.000
234.655;  -91.100; -582.000; -555.000
234.798;  -67.000; -493.000; -466.000
234.942; -133.150; -884.000;-1002.000
235.085;  -73.275; -651.000; -443.000
235.229;  -77.125; -405.000; -410.000
235.372;  -50.775; -247.000; -191.000
235.516;  -62.550; -397.000; -321.000
235.659;   19.650;   92.000;  121.000
235.802;  -22.700;  -38.000;  -22.000
235.946;   35.750;  335.000;  215.000
236.089;   23.275;  126.000;  250.000
236.233;   39.375;  275.000;  298.000
236.376;  -40.250; -235.000; -378.000
236.519;  -38.425; -297.000; -319.000
236.663;  -27.875; -215.000; -117.000
236.806; -126.875;-1029.000; -999.000
236.949;   68.700;  543.000;  431.000
237.092;   53.425;  412.000;  391.000
237.236;  -85.025; -589.000; -502.000
237.379;   60.650;  352.000;  428.000
237.522; -121.075; -879.000; -768.000
237.666;   -9.100; -271.000;   18.000
237.809; -121.675; -851.000; -823.000
237.952;   32.175;  469.000;  271.000
238.095;  -75.625; -447.000; -442.000
238.238;   79.425;  688.000;  700.000
238.382;   -0.525;  166.000;  103.000
238.525;  -70.175; -598.000; -511.000
238.668; -148.425;-1060.000; -985.000
238.811;  -74.975; -638.000; -643.000
238.954;  -56.575; -483.000; -334.000
239.097;   98.400;  617.000;  664.000
239.241;   24.475;  394.000;  326.000
239.384;  -27.725; -254.000; -214.000
239.527;  -59.400; -424.000; -224.000
239.670; -143.550; -994.000;-1091.000
239.813; -108.150; -696.000; -658.000
239.956;   78.625;  579.000;  473.000
240.099; -118.175; -778.000; -725.000
240.242;   70.350;  428.000;  432.000
240.385;   33.050;  466.000;  450.000
240.528;  -73.800; -706.000; -473.000
240.671;   26.750;  189.000;  134.000
240.814;  -47.975; -441.000; -158.000
240.957;  -79.275; -767.000; -578.000
241.100;  -84.700; -779.000; -755.000
241.243; -141.925;-1234.000; -893.000
241.386;  -57.200; -508.000; -379.000
241.529;  -98.800; -735.000; -547.000
241.672;  -62.500; -566.000; -495.000
241.815; -107.900; -832.000; -808.000
241.958;  -19.400; -125.000; -182.000
242.101;  -83.950; -545.000; -390.000
242.244;  -34.275; -270.000; -325.000
242.387;  -46.450; -304.000; -246.000
242.530;   57.600;  470.000;  134.000
242.673;  -40.500; -381.000; -309.000
242.815; -123.925; -925.000; -899.000
242.958;  -73.225; -482.000; -381.000
243.101;   13.425;  132.000;  187.000
243.244;  -71.525; -564.000; -521.000
243.387;  -43.850; -313.000; -316.000
243.530;  -88.075; -657.000; -674.000
243.672;   11.575;   43.000;  -92.000
243.815;  -46.500; -355.000; -283.000
243.958;    4.825;   98.000;  -26.000
244.101;   -0.125;   59.000;  -16.000
244.243;  -13.350;  -47.000;  101.000
244.386;  -96.350; -761.000; -630.000
244.529;  -18.175; -132.000; -139.000
244.672; -154.400;-1154.000; -951.000
244.814;  -84.375; -621.000; -794.000
244.957;  -37.900; -380.000; -304.000
245.100;  -73.850; -489.000; -489.000
245.242;  -56.400; -387.000; -374.000
245.385;   -9.225;  -59.000;  -39.000
245.528; -125.100; -871.000; -705.000
245.670;   81.850;  612.000;  634.000
245.813;  -84.925; -599.000; -547.000
245.956;  -31.325; -324.000; -275.000
246.098;  -69.125; -508.000; -650.000
246.241;   -8.975;  194.000;   48.000
246.383;  -14.850; -119.000;  -73.000
246.526;  -75.225; -454.000; -525.000
246.669; -129.550; -889.000; -780.000
246.811;   26.100;  172.000;   -1.000
246.954;  -71.300; -512.000; -426.000
247.096;  -22.050;  -84.000;   -6.000
247.239;  -87.850; -482.000; -445.000
247.381;  -65.150; -647.000; -488.000
247.524;   82.725;  645.000;  679.000
247.666;   -9.100;   58.000;   11.000
247.809; -116.350; -887.000; -691.000
247.951;   -5.525;  -75.000;  138.000
248.094;   12.025;  432.000;  308.000
248.236; -157.800;-1262.000;-1238.000
248.378;   11.925; -356.000;  -81.000
248.521;  -19.075; -334.000; -337.000
248.663;  -43.050; -236.000; -267.000
248.806;  -15.550; -300.000; -266.000
248.948;  -90.850; -886.000; -763.000
249.090;  -38.625; -428.000; -398.000
249.233;  -47.275; -344.000; -381.000
249.375;  -54.700; -474.000; -451.000
249.518;  -33.075;  -83.000; -133.000
249.660;  -12.800; -103.000;    3.000
249.802; -167.425;-1303.000;-1189.000
249.945;  -92.750; -612.000; -540.000
250.087; -121.875; -834.000; -768.000
250.229;  -51.200; -362.000; -480.000
250.371;  -68.850; -494.000; -439.000
250.514;  -52.950; -310.000; -244.000
250.656;   -9.425;   69.000;  102.000
250.798; -113.900; -849.000; -800.000
250.940;  -64.950; -322.000; -322.000
251.083;  -23.900; -335.000; -111.000
251.225;   59.375;  338.000;  310.000
251.367;  -31.900; -274.000; -373.000
251.509;  -43.700; -265.000; -210.000
251.651;  -93.000; -731.000; -671.000
251.794;   37.150;  538.000;  632.000
251.936; -102.275; -821.000; -747.000
252.078;  -68.625; -540.000; -461.000
252.220;  -63.475; -645.000; -477.000
252.362;   85.775;  344.000;  462.000
252.504;  -58.250; -677.000; -584.000
252.646; -115.000; -875.000; -722.000
252.788;    9.025;   14.000; -128.000
252.931;  -38.075; -257.000; -253.000
253.073;  -38.225; -376.000; -317.000
253.215;  -14.275;  141.000;  122.000
253.357;   -1.575;   82.000; -153.000
253.499;  -45.850; -374.000; -234.000
253.641; -103.675; -749.000; -594.000
253.783; -101.875; -609.000; -527.000
253.925;  -95.500; -586.000; -591.000
254.067;  -95.800; -744.000; -667.000
254.209;  -33.575; -391.000; -259.000
254.351; -141.225; -865.000; -883.000
254.493;  -55.650; -441.000; -417.000
254.635; -137.250; -936.000; -818.000
254.777;  -77.375; -752.000; -687.000
254.918;  -62.250; -512.000; -430.000
255.060;  -58.475; -551.000; -395.000
255.202;  -73.675; -473.000; -261.000
255.344;  -74.375; -658.000; -455.000
255.486;  -73.600; -471.000; -406.000
255.628; -100.275; -780.000; -781.000
255.770;  -89.425; -676.000; -536.000
255.912;  -63.750; -559.000; -468.000
256.053;  -91.625; -730.000; -508.000
256.195;  157.625; 1008.000;  903.000
256.337; -114.550; -861.000; -595.000
256.479;   68.850;  532.000;  416.000
256.621;  -40.775; -394.000; -212.000
256.762;  -93.050; -789.000; -742.000
256.904;   55.000;  485.000;  487.000
257.046;  -49.700; -381.000; -271.000
257.188;  -37.125; -351.000; -264.000
257.329;  -77.450; -525.000; -464.000
257.471; -113.525; -939.000; -807.000
257.613;  -68.950; -584.000; -498.000
257.755; -146.975;-1073.000; -982.000
257.896;   26.950;  286.000;  392.000
258.038;  -71.550; -403.000; -352.000
258.180;  -43.675; -354.000; -279.000
258.321;  -84.700; -581.000; -457.000
258.463;   -2.825;  -71.000;  133.000
258.605;  -90.725; -562.000; -570.000
258.746; -101.400; -886.000; -772.000
258.888; -153.650;-1026.000;-1020.000
259.029;   23.850;  121.000;   -8.000
259.171;  -96.450; -614.000; -550.000
259.313;   -5.000;  -49.000;  -47.000
259.454;  -59.100; -536.000; -414.000
259.596;  -52.775; -483.000; -390.000
259.737;  -78.300; -590.000; -474.000
259.879;   33.250;  217.000;  311.000
260.020;   86.700;  901.000;  636.000
260.162;  -24.675; -146.000; -253.000
260.303; -117.175; -768.000; -687.000
260.445;  -73.850; -609.000; -613.000
260.586;   21.925;  392.000;  157.000
260.728;  -44.225; -360.000; -248.000
260.869; -106.475; -350.000; -343.000
261.011;   73.775;  706.000;  537.000
261.152;  -60.550; -479.000; -319.000
261.293;  -82.800; -576.000; -595.000
261.435;  -27.000; -219.000; -184.000
261.576;  -67.875; -455.000; -325.000
261.718;   62.250;  420.000;  470.000
261.859; -133.950; -940.000; -949.000
262.000; -133.875; -951.000;-1016.000
262.142;   -5.475;  -52.000;  -60.000
262.283; -120.250; -808.000; -691.000
262.424;  -78.400; -666.000; -625.000
262.566; -160.000;-1161.000; -983.000
262.707; -110.275; -840.000; -830.000
262.848; -125.500; -769.000; -726.000
262.990;  -52.300; -362.000; -345.000
263.131;   69.475;  650.000;  681.000
263.272;  -10.575;  -61.000;  -41.000
263.413;  -82.725; -589.000; -561.000
263.555;  -65.100; -669.000; -143.000
263.696;  -98.950; -550.000; -641.000
263.837;  -58.800; -449.000; -551.000
263.978;  -15.775;   -5.000;  -77.000
264.119;  -40.650; -283.000; -264.000
264.261; -116.725; -847.000; -630.000
264.402;    0.825;   33.000;   40.000
264.543;  -75.775; -509.000; -524.000
264.684;  -14.525;   61.000;  -50.000
264.825;  -74.600; -816.000; -538.000
264.966;  -13.450;  -84.000;  -67.000
265.107; -111.150; -646.000; -670.000
265.248; -114.725; -825.000; -812.000
265.390;  -16.900;  152.000;   -9.000
265.531;  -17.175; -238.000; -107.000
265.672;  -98.575; -557.000; -630.000
265.813;   56.825;  563.000;  439.000
265.954; -153.450; -959.000; -940.000
266.095;   -4.400; -372.000; -322.000
266.236; -100.100; -686.000; -548.000
266.377;  -42.425; -243.000; -297.000
266.518;  -75.825; -619.000; -547.000
266.659;   26.975;  170.000;  268.000
266.800;   -3.825;   83.000;   85.000
266.941;  -72.325; -487.000; -478.000
267.082;   15.425;  354.000;   99.000
267.223;  -46.300; -344.000; -273.000
267.364; -126.775; -892.000; -686.000
267.504;   -8.050;    3.000;  135.000
267.645;  -17.575;  160.000;   67.000
267.786;  -28.900; -147.000;  -86.000
267.927;  -74.075; -473.000; -379.000
268.068;  -27.375; -186.000;  -61.000
268.209;  -50.125; -175.000; -413.000
268.350;  -60.225; -388.000; -532.000
268.490;  -88.100; -648.000; -521.000
268.631;   30.525;  127.000;  225.000
268.772; -107.300; -874.000; -647.000
268.913;  -39.975; -328.000; -476.000
269.054;  -14.025; -117.000;   12.000
269.194;  -50.625; -418.000; -402.000
269.335; -153.325;-1137.000;-1074.000
269.476;  -24.025;   33.000;  -35.000
269.617;  -52.275; -347.000; -392.000
269.757;  -87.775; -713.000; -646.000
269.898; -104.600; -856.000; -613.000
270.039;  -71.200; -415.000; -405.000
270.180; -148.600; -952.000; -816.000
270.320;  -20.125; -190.000; -250.000
