
Integration time [ms]: 100.000
Averaging Nr. [scans]: 40
Smoothing Nr. [pixels]: 0
Data measured with spectrometer [name]: 2101012U2
Wave   ;Sample   ;Dark     ;Reference
[nm]   ;[counts] ;[counts] ;[counts] 

197.733;   60.825;  516.000;  404.000
197.879;  -86.050; -610.000; -634.000
198.025;  -46.975; -475.000; -420.000
198.171;  -68.150; -602.000; -612.000
198.317;  -26.425; -401.000; -316.000
198.463;  -67.200; -655.000; -404.000
198.609;   27.550;  181.000; -137.000
198.755;  -93.125; -644.000; -410.000
198.901;  -70.675; -505.000; -424.000
199.047;  -56.725; -615.000; -488.000
199.193;  -36.175; -230.000; -468.000
199.339;  -33.000; -222.000; -369.000
199.485;   36.425;  330.000;  271.000
199.631;    8.325;  227.000;  310.000
199.777;  -46.625; -466.000; -398.000
199.923;  -54.150; -610.000; -424.000
200.069;   -3.150; -141.000;  -58.000
200.215;   61.000;  128.000;  453.000
200.361;   41.150;  243.000;  477.000
200.507;  -70.275; -600.000; -373.000
200.653;  -36.300; -371.000; -194.000
200.798;  -40.400; -215.000; -125.000
200.944;   -1.500; -146.000;  -41.000
201.090;   22.150;   61.000;  222.000
201.236;   -4.100; -116.000; -158.000
201.382;  118.625;  874.000;  903.000
201.528;    2.450;  -58.000;  -48.000
201.674;  -33.225; -386.000; -293.000
201.819;  -70.675; -540.000; -439.000
201.965;  -94.800; -699.000; -447.000
202.111;  -15.800; -273.000; -226.000
202.257;  -36.875; -250.000; -238.000
202.402;    9.725;   13.000;  -36.000
202.548;  -30.075; -169.000; -116.000
202.694;   78.525;  410.000; -183.000
202.840;  -75.100; -603.000; -531.000
202.985;  -70.150; -681.000; -639.000
203.131; -104.675; -832.000; -666.000
203.277;  -27.050; -199.000; -262.000
203.423;  -55.725; -434.000; -520.000
203.568;  -33.775; -462.000; -237.000
203.714;  -60.425; -535.000; -542.000
203.860;  -66.725; -682.000; -641.000
204.005;   14.700;  112.000;  167.000
204.151;   74.800;  561.000;  556.000
204.296;  -40.100; -354.000; -221.000
204.442;  -71.475; -600.000; -547.000
204.588;  -74.625; -592.000; -579.000
204.733;   -1.425;  178.000;  168.000
204.879; -119.275;-1018.000; -822.000
205.025;   20.175;  -99.000;  126.000
205.170;  -10.050;  -17.000;   94.000
205.316;   72.900;  438.000;  661.000
205.461;  -73.600; -698.000; -554.000
205.607;   97.450;  609.000;  665.000
205.752;  -83.275; -626.000; -551.000
205.898;  -63.875; -501.000; -391.000
206.043;  -59.675; -578.000; -506.000
206.189;  -26.500; -243.000; -285.000
206.334;   68.600;  554.000;  606.000
206.480;   64.775;  409.000;  239.000
206.625;  -71.975; -529.000; -552.000
206.771;  -49.425; -451.000; -373.000
206.916;  -25.625; -210.000; -537.000
207.062;  -76.975; -545.000; -591.000
207.207;  -65.275; -546.000; -443.000
207.353;   61.100;  185.000;  460.000
207.498;   24.075;  196.000;   85.000
207.643;  -53.650; -501.000; -370.000
207.789; -122.325;-1069.000; -910.000
207.934;  -88.850; -665.000; -713.000
208.080;  -11.750; -154.000;   66.000
208.225;   -5.825;  -22.000;  -57.000
208.370;  -94.425; -727.000; -619.000
208.516;  -83.300; -741.000; -487.000
208.661;  -31.475; -127.000;  -69.000
208.806;  -16.225; -165.000; -171.000
208.952; -117.125;-1044.000; -731.000
209.097;   93.500;  378.000;  349.000
209.242;  -36.425; -307.000; -382.000
209.387;   74.500;  392.000;  350.000
209.533;  -34.025; -321.000; -350.000
209.678;   75.525;  472.000;  543.000
209.823;  -46.025; -408.000; -310.000
209.969; -102.100; -860.000; -757.000
210.114; -110.450; -907.000; -719.000
210.259; -112.125; -939.000; -889.000
210.404;   -9.650; -171.000;  103.000
210.549;   19.500;  108.000;    3.000
210.695;  -18.200;   -3.000;  -95.000
210.840;   33.500;   94.000;   67.000
210.985;  -61.625; -484.000; -303.000
211.130;   79.350;  268.000;  406.000
211.275;   23.150;  207.000;  199.000
211.420;  -46.375; -300.000; -289.000
211.566;  -64.325; -536.000; -489.000
211.711;   18.575;  218.000;  157.000
211.856;  -65.500; -545.000; -519.000
212.001;   19.225;  151.000;   44.000
212.146;   22.925;  153.000;   49.000
212.291;   -4.850; -210.000; -186.000
212.436;  -27.750; -280.000;   -6.000
212.581;  -81.050; -685.000; -653.000
212.726;  -66.325; -487.000; -538.000
212.871;  -55.325; -552.000; -217.000
213.016; -144.975;-1172.000;-1029.000
213.161;   60.750;  406.000;  291.000
213.306;  -69.825; -435.000; -577.000
213.451;  -82.625; -778.000; -689.000
213.596;  -38.750; -455.000; -347.000
213.741;  -46.625; -448.000; -538.000
213.886;  -76.325; -498.000; -517.000
214.031;  -30.525; -294.000; -124.000
214.176;  -63.375; -408.000; -341.000
214.321;  -12.825; -296.000; -157.000
214.466;  -30.300; -163.000;  -43.000
214.611;   -6.775;  -61.000;  -10.000
214.756; -123.375; -948.000; -858.000
214.901;  -19.850; -388.000; -226.000
215.046; -131.625; -797.000; -825.000
215.191;   20.875;  128.000;   35.000
215.336;   -5.800; -157.000;  -19.000
215.480;  -67.575; -684.000; -505.000
215.625;  -25.175; -175.000;  -19.000
215.770;  -84.050; -757.000; -662.000
215.915;    4.725;   -5.000;  -97.000
216.060;   -1.200; -113.000;  -21.000
216.205; -109.825; -731.000; -779.000
216.349;  -69.850; -470.000; -533.000
216.494; -142.100; -939.000; -867.000
216.639; -116.275; -823.000; -888.000
216.784;  -97.450; -577.000; -525.000
216.929;   47.825;  392.000;  281.000
217.073;    0.150; -244.000;  -31.000
217.218;   15.750;   78.000;  -47.000
217.363;  -81.950; -656.000; -618.000
217.507;  -81.025; -623.000; -588.000
217.652; -124.825; -845.000; -874.000
217.797;  -90.675; -708.000; -659.000
217.942; -107.050; -856.000; -720.000
218.086;   84.425;  608.000;  539.000
218.231;  -30.850; -174.000;  -26.000
218.376;  -21.775; -337.000; -229.000
218.520;    3.850;  -41.000;   96.000
218.665;  -43.075; -338.000; -204.000
218.810;  -40.050; -275.000; -233.000
218.954;   22.075;  201.000;   35.000
219.099; -116.650; -713.000; -963.000
219.243;  -76.600; -589.000; -554.000
219.388;  -36.525; -264.000; -136.000
219.532;   -9.950; -116.000; -116.000
219.677;  -77.750; -564.000; -521.000
219.822;    1.425;   33.000;   89.000
219.966;   -3.000;   17.000;  -99.000
220.111;  -17.500; -328.000;  -40.000
220.255; -103.925; -797.000; -750.000
220.400;  -20.375; -180.000; -146.000
220.544;  -54.625; -516.000; -450.000
220.689;  -38.150; -422.000; -451.000
220.833;  -20.025; -123.000;  -58.000
220.978;  -41.850; -393.000; -563.000
221.122;   19.075;  319.000;  307.000
221.267; -100.825; -906.000; -837.000
221.411;  -65.075; -478.000; -394.000
221.555;   -3.300; -104.000;  -23.000
221.700;  -56.525; -329.000; -222.000
221.844;   37.400;  255.000;  272.000
221.989;  -33.325; -328.000; -311.000
222.133;  -43.500; -289.000; -307.000
222.277;  -22.275;    5.000;   78.000
222.422;    8.125;  227.000;  113.000
222.566;  -47.500; -381.000; -214.000
222.711;  -37.875; -414.000; -479.000
222.855;  -77.300; -643.000; -586.000
222.999;  -81.725; -642.000; -717.000
223.144;  -35.600; -195.000; -194.000
223.288;   50.825;  423.000;  251.000
223.432;   31.150;  184.000;  230.000
223.576;   12.400;  152.000;  -21.000
223.721;   35.425;  364.000;  273.000
223.865;  -63.200; -472.000; -475.000
224.009;  208.700; 1673.000; 1631.000
224.153;  -80.900; -660.000; -671.000
224.298;  -65.175; -531.000; -489.000
224.442;  -19.825;  -74.000;  -33.000
224.586;   -1.375; -169.000; -106.000
224.730;  -81.700; -858.000; -670.000
224.875; -106.450; -739.000; -688.000
225.019;   18.150;  102.000;  188.000
225.163;   63.875;  208.000;  341.000
225.307;   20.450;   97.000;  -91.000
225.451;   37.775;  360.000;  481.000
225.595;   39.825;  264.000;  176.000
225.739;  -20.750; -170.000;  -94.000
225.884;    6.525;   86.000;    5.000
226.028;  -95.025; -760.000; -626.000
226.172;  -49.300; -260.000; -273.000
226.316; -117.775; -941.000; -902.000
226.460;  -73.050; -645.000; -493.000
226.604;  -50.125; -406.000; -400.000
226.748;  -92.625; -836.000; -733.000
226.892;  -34.350; -227.000; -181.000
227.036;  -49.775; -537.000; -447.000
227.180;  -55.150; -551.000; -375.000
227.324;  -73.400; -561.000; -580.000
227.468; -112.775; -819.000; -717.000
227.612;   11.100;  242.000;  -28.000
227.756;  -95.925; -845.000; -698.000
227.900;   45.550;  342.000;  441.000
228.044;  -56.125; -509.000; -290.000
228.188;   55.700;  448.000;  568.000
228.332;  -85.325; -546.000; -472.000
228.476;  -31.075; -223.000; -149.000
228.620;  -34.375; -210.000; -150.000
228.764;   68.625;  431.000;  349.000
228.908;  -12.200; -155.000;   30.000
229.052;  -54.775; -615.000; -528.000
229.195;  -24.250; -172.000;   13.000
229.339;  -27.525; -235.000; -305.000
229.483;  -24.550;    5.000; -162.000
229.627;  -12.300; -156.000;  139.000
229.771;  -43.675; -218.000; -294.000
229.915;    6.975;  230.000;   79.000
230.059;  -88.400; -648.000; -663.000
230.202;  -32.225; -370.000; -317.000
230.346;  -27.125; -107.000;  107.000
230.490;  -66.175; -489.000; -521.000
230.634; -105.250; -736.000; -553.000
230.777;   67.175;  478.000;  509.000
230.921;  -48.925; -450.000; -359.000
231.065;  -35.800; -246.000; -286.000
231.209;   28.475;  261.000;  265.000
231.352;   32.750;   54.000;   40.000
231.496;   -4.375;  568.000;  188.000
231.640;  -78.875; -693.000; -621.000
231.783;   65.825;  546.000;  525.000
231.927;  -35.875; -294.000; -365.000
232.071; -107.075; -962.000; -736.000
232.214; -115.325; -980.000; -764.000
232.358;  -97.075; -683.000; -599.000
232.502;    0.100;  -19.000;    7.000
232.645; -137.775;-1090.000; -927.000
232.789;  -27.875; -257.000; -218.000
232.933;  -43.900; -407.000; -224.000
233.076; -126.100;-1038.000; -897.000
233.220; -101.650; -752.000; -777.000
233.363;  -75.775; -669.000; -477.000
233.507;   52.650;  371.000;  129.000
233.650; -102.100; -764.000; -834.000
233.794;   38.575;  438.000;  461.000
233.938;  -62.625; -530.000; -362.000
234.081;  -10.950;  -93.000;   31.000
234.225;  -74.225; -631.000; -539.000
234.368; -113.400; -773.000; -723.000
234.512;  -37.150; -385.000; -299.000
234.655;  -83.925; -582.000; -555.000
234.798;  -61.425; -493.000; -466.000
234.942; -120.825; -884.000;-1002.000
235.085;  -69.225; -651.000; -443.000
235.229;  -73.100; -405.000; -410.000
235.372;  -43.975; -247.000; -191.000
235.516;  -57.200; -397.000; -321.000
235.659;   25.650;   92.000;  121.000
235.802;   -2.950;  -38.000;  -22.000
235.946;   31.375;  335.000;  215.000
236.089;   38.700;  126.000;  250.000
236.233;   47.650;  275.000;  298.000
236.376;  -59.425; -235.000; -378.000
236.519;  -46.800; -297.000; -319.000
236.663;  -40.750; -215.000; -117.000
236.806; -125.025;-1029.000; -999.000
236.949;   64.800;  543.000;  431.000
237.092;   63.850;  412.000;  391.000
237.236;  -90.050; -589.000; -502.000
237.379;   60.425;  352.000;  428.000
237.522; -117.175; -879.000; -768.000
237.666;   -1.875; -271.000;   18.000
237.809; -130.550; -851.000; -823.000
237.952;   32.900;  469.000;  271.000
238.095;  -61.925; -447.000; -442.000
238.238;   76.975;  688.000;  700.000
238.382;    8.675;  166.000;  103.000
238.525;  -62.125; -598.000; -511.000
238.668; -133.475;-1060.000; -985.000
238.811;  -77.625; -638.000; -643.000
238.954;  -62.825; -483.000; -334.000
239.097;   88.800;  617.000;  664.000
239.241;   21.750;  394.000;  326.000
239.384;  -31.625; -254.000; -214.000
239.527;  -60.750; -424.000; -224.000
239.670; -153.575; -994.000;-1091.000
239.813; -110.400; -696.000; -658.000
239.956;   73.275;  579.000;  473.000
240.099; -113.650; -778.000; -725.000
240.242;   63.325;  428.000;  432.000
240.385;   52.675;  466.000;  450.000
240.528;  -77.800; -706.000; -473.000
240.671;   16.375;  189.000;  134.000
240.814;  -39.800; -441.000; -158.000
240.957;  -97.125; -767.000; -578.000
241.100;  -95.300; -779.000; -755.000
241.243; -146.000;-1234.000; -893.000
241.386;  -55.950; -508.000; -379.000
241.529;  -90.625; -735.000; -547.000
241.672;  -57.725; -566.000; -495.000
241.815; -111.000; -832.000; -808.000
241.958;  -21.225; -125.000; -182.000
242.101;  -70.900; -545.000; -390.000
242.244;  -40.400; -270.000; -325.000
242.387;  -42.075; -304.000; -246.000
242.530;   54.975;  470.000;  134.000
242.673;  -40.850; -381.000; -309.000
242.815; -116.750; -925.000; -899.000
242.958;  -70.425; -482.000; -381.000
243.101;   11.200;  132.000;  187.000
243.244;  -73.525; -564.000; -521.000
243.387;  -53.100; -313.000; -316.000
243.530;  -91.300; -657.000; -674.000
243.672;    1.125;   43.000;  -92.000
243.815;  -51.850; -355.000; -283.000
243.958;   -5.950;   98.000;  -26.000
244.101;  -17.475;   59.000;  -16.000
244.243;  -19.300;  -47.000;  101.000
244.386; -115.400; -761.000; -630.000
244.529;  -16.900; -132.000; -139.000
244.672; -152.375;-1154.000; -951.000
244.814;  -95.000; -621.000; -794.000
244.957;  -61.500; -380.000; -304.000
245.100;  -67.075; -489.000; -489.000
245.242;  -62.775; -387.000; -374.000
245.385;  -12.025;  -59.000;  -39.000
245.528; -121.350; -871.000; -705.000
245.670;   78.800;  612.000;  634.000
245.813;  -82.700; -599.000; -547.000
245.956;  -34.150; -324.000; -275.000
246.098;  -76.650; -508.000; -650.000
246.241;    8.575;  194.000;   48.000
246.383;  -15.725; -119.000;  -73.000
246.526;  -77.000; -454.000; -525.000
246.669; -118.450; -889.000; -780.000
246.811;   24.275;  172.000;   -1.000
246.954;  -76.950; -512.000; -426.000
247.096;  -20.375;  -84.000;   -6.000
247.239;  -72.450; -482.000; -445.000
247.381;  -64.075; -647.000; -488.000
247.524;   77.850;  645.000;  679.000
247.666;  -26.350;   58.000;   11.000
247.809; -115.025; -887.000; -691.000
247.951;   -4.625;  -75.000;  138.000
248.094;   26.500;  432.000;  308.000
248.236; -161.325;-1262.000;-1238.000
248.378;   14.925; -356.000;  -81.000
248.521;  -26.100; -334.000; -337.000
248.663;  -34.725; -236.000; -267.000
248.806;  -22.950; -300.000; -266.000
248.948;  -91.675; -886.000; -763.000
249.090;  -50.475; -428.000; -398.000
249.233;  -49.700; -344.000; -381.000
249.375;  -62.900; -474.000; -451.000
249.518;  -11.625;  -83.000; -133.000
249.660;  -11.025; -103.000;    3.000
249.802; -167.175;-1303.000;-1189.000
249.945;  -73.375; -612.000; -540.000
250.087; -112.050; -834.000; -768.000
250.229;  -43.800; -362.000; -480.000
250.371;  -70.575; -494.000; -439.000
250.514;  -52.650; -310.000; -244.000
250.656;  -56.725;   69.000;  102.000
250.798; -122.925; -849.000; -800.000
250.940;  -61.400; -322.000; -322.000
251.083;  -25.700; -335.000; -111.000
251.225;   54.400;  338.000;  310.000
251.367;  -31.475; -274.000; -373.000
251.509;  -45.250; -265.000; -210.000
251.651;  -87.225; -731.000; -671.000
251.794;   56.400;  538.000;  632.000
251.936; -108.400; -821.000; -747.000
252.078;  -76.775; -540.000; -461.000
252.220;  -73.875; -645.000; -477.000
252.362;   96.500;  344.000;  462.000
252.504;  -67.350; -677.000; -584.000
252.646; -118.150; -875.000; -722.000
252.788;   -5.550;   14.000; -128.000
252.931;  -37.375; -257.000; -253.000
253.073;  -37.575; -376.000; -317.000
253.215;  -12.575;  141.000;  122.000
253.357;   -8.500;   82.000; -153.000
253.499;  -43.900; -374.000; -234.000
253.641;  -80.875; -749.000; -594.000
253.783;  -90.225; -609.000; -527.000
253.925;  -79.275; -586.000; -591.000
254.067; -111.600; -744.000; -667.000
254.209;  -26.550; -391.000; -259.000
254.351; -123.925; -865.000; -883.000
254.493;  -61.400; -441.000; -417.000
254.635; -126.350; -936.000; -818.000
254.777;  -90.050; -752.000; -687.000
254.918;  -74.175; -512.000; -430.000
255.060;  -53.625; -551.000; -395.000
255.202;  -63.950; -473.000; -261.000
255.344;  -82.450; -658.000; -455.000
255.486;  -66.550; -471.000; -406.000
255.628; -100.000; -780.000; -781.000
255.770;  -95.575; -676.000; -536.000
255.912;  -53.025; -559.000; -468.000
256.053;  -96.375; -730.000; -508.000
256.195;  140.850; 1008.000;  903.000
256.337;  -98.925; -861.000; -595.000
256.479;   53.550;  532.000;  416.000
256.621;  -55.025; -394.000; -212.000
256.762;  -91.575; -789.000; -742.000
256.904;   64.525;  485.000;  487.000
257.046;  -32.200; -381.000; -271.000
257.188;  -37.425; -351.000; -264.000
257.329;  -70.150; -525.000; -464.000
257.471; -119.700; -939.000; -807.000
257.613;  -66.275; -584.000; -498.000
257.755; -150.100;-1073.000; -982.000
257.896;   34.500;  286.000;  392.000
258.038;  -67.025; -403.000; -352.000
258.180;  -41.100; -354.000; -279.000
258.321;  -86.000; -581.000; -457.000
258.463;   -6.150;  -71.000;  133.000
258.605;  -81.075; -562.000; -570.000
258.746; -110.575; -886.000; -772.000
258.888; -168.425;-1026.000;-1020.000
259.029;   26.400;  121.000;   -8.000
259.171;  -88.275; -614.000; -550.000
259.313;   -4.250;  -49.000;  -47.000
259.454;  -69.450; -536.000; -414.000
259.596;  -65.050; -483.000; -390.000
259.737;  -75.825; -590.000; -474.000
259.879;   42.175;  217.000;  311.000
260.020;   93.925;  901.000;  636.000
260.162;  -25.350; -146.000; -253.000
260.303; -115.800; -768.000; -687.000
260.445;  -73.050; -609.000; -613.000
260.586;   23.750;  392.000;  157.000
260.728;  -32.625; -360.000; -248.000
260.869; -110.600; -350.000; -343.000
261.011;   79.075;  706.000;  537.000
261.152;  -53.550; -479.000; -319.000
261.293;  -78.825; -576.000; -595.000
261.435;  -32.950; -219.000; -184.000
261.576;  -56.000; -455.000; -325.000
261.718;   66.075;  420.000;  470.000
261.859; -120.400; -940.000; -949.000
262.000; -144.275; -951.000;-1016.000
262.142;   -8.000;  -52.000;  -60.000
262.283; -127.950; -808.000; -691.000
262.424;  -89.300; -666.000; -625.000
262.566; -150.300;-1161.000; -983.000
262.707; -108.550; -840.000; -830.000
262.848; -120.925; -769.000; -726.000
262.990;  -44.550; -362.000; -345.000
263.131;   83.475;  650.000;  681.000
263.272;  -16.450;  -61.000;  -41.000
263.413;  -93.075; -589.000; -561.000
263.555;  -72.250; -669.000; -143.000
263.696;  -87.150; -550.000; -641.000
263.837;  -45.450; -449.000; -551.000
263.978;  -18.100;   -5.000;  -77.000
264.119;  -49.200; -283.000; -264.000
264.261; -113.275; -847.000; -630.000
264.402;   -3.850;   33.000;   40.000
264.543;  -81.625; -509.000; -524.000
264.684;  -13.875;   61.000;  -50.000
264.825;  -81.250; -816.000; -538.000
264.966;   10.625;  -84.000;  -67.000
265.107; -122.625; -646.000; -670.000
265.248; -120.550; -825.000; -812.000
265.390;   -0.050;  152.000;   -9.000
265.531;  -22.950; -238.000; -107.000
265.672;  -93.950; -557.000; -630.000
265.813;   61.475;  563.000;  439.000
265.954; -144.575; -959.000; -940.000
266.095;  -23.075; -372.000; -322.000
266.236;  -91.775; -686.000; -548.000
266.377;  -33.000; -243.000; -297.000
266.518;  -78.875; -619.000; -547.000
266.659;   24.400;  170.000;  268.000
266.800;   -6.750;   83.000;   85.000
266.941;  -76.600; -487.000; -478.000
267.082;    9.400;  354.000;   99.000
267.223;  -54.125; -344.000; -273.000
267.364; -117.175; -892.000; -686.000
267.504;  -30.375;    3.000;  135.000
267.645;   -6.575;  160.000;   67.000
267.786;  -23.675; -147.000;  -86.000
267.927;  -79.450; -473.000; -379.000
268.068;  -21.575; -186.000;  -61.000
268.209;  -49.950; -175.000; -413.000
268.350;  -59.775; -388.000; -532.000
268.490;  -90.475; -648.000; -521.000
268.631;   31.500;  127.000;  225.000
268.772; -105.650; -874.000; -647.000
268.913;  -67.600; -328.000; -476.000
269.054;   -6.825; -117.000;   12.000
269.194;  -51.100; -418.000; -402.000
269.335; -153.450;-1137.000;-1074.000
269.476;  -18.900;   33.000;  -35.000
269.617;  -44.800; -347.000; -392.000
269.757;  -80.900; -713.000; -646.000
269.898; -114.000; -856.000; -613.000
270.039;  -71.850; -415.000; -405.000
270.180; -132.650; -952.000; -816.000
270.320;  -17.200; -190.000; -250.000
