
Integration time [ms]: 100.000
Averaging Nr. [scans]: 40
Smoothing Nr. [pixels]: 0
Data measured with spectrometer [name]: 2101012U2
Wave   ;Sample   ;Dark     ;Reference
[nm]   ;[counts] ;[counts] ;[counts] 

197.733;   62.825;  516.000;  404.000
197.879;  -81.450; -610.000; -634.000
198.025;  -44.850; -475.000; -420.000
198.171;  -80.075; -602.000; -612.000
198.317;  -41.375; -401.000; -316.000
198.463;  -58.650; -655.000; -404.000
198.609;   20.850;  181.000; -137.000
198.755;  -96.250; -644.000; -410.000
198.901;  -69.925; -505.000; -424.000
199.047;  -62.375; -615.000; -488.000
199.193;  -41.150; -230.000; -468.000
199.339;  -53.075; -222.000; -369.000
199.485;   36.175;  330.000;  271.000
199.631;   13.075;  227.000;  310.000
199.777;  -45.025; -466.000; -398.000
199.923;  -76.200; -610.000; -424.000
200.069;   -0.150; -141.000;  -58.000
200.215;   57.800;  128.000;  453.000
200.361;   37.925;  243.000;  477.000
200.507;  -81.075; -600.000; -373.000
200.653;  -34.425; -371.000; -194.000
200.798;  -40.350; -215.000; -125.000
200.944;   -7.075; -146.000;  -41.000
201.090;   37.550;   61.000;  222.000
201.236;   -7.500; -116.000; -158.000
201.382;  131.675;  874.000;  903.000
201.528;    3.900;  -58.000;  -48.000
201.674;  -50.825; -386.000; -293.000
201.819;  -68.950; -540.000; -439.000
201.965;  -74.150; -699.000; -447.000
202.111;  -30.850; -273.000; -226.000
202.257;  -47.150; -250.000; -238.000
202.402;    2.325;   13.000;  -36.000
202.548;  -41.725; -169.000; -116.000
202.694;   95.975;  410.000; -183.000
202.840;  -74.750; -603.000; -531.000
202.985;  -80.125; -681.000; -639.000
203.131; -113.350; -832.000; -666.000
203.277;  -22.100; -199.000; -262.000
203.423;  -58.850; -434.000; -520.000
203.568;  -50.650; -462.000; -237.000
203.714;  -64.650; -535.000; -542.000
203.860;  -86.550; -682.000; -641.000
204.005;   16.050;  112.000;  167.000
204.151;   80.475;  561.000;  556.000
204.296;  -47.100; -354.000; -221.000
204.442;  -78.875; -600.000; -547.000
204.588;  -73.575; -592.000; -579.000
204.733;   27.775;  178.000;  168.000
204.879; -145.800;-1018.000; -822.000
205.025;    0.750;  -99.000;  126.000
205.170;   -0.825;  -17.000;   94.000
205.316;   95.050;  438.000;  661.000
205.461;  -92.575; -698.000; -554.000
205.607;   88.250;  609.000;  665.000
205.752;  -82.000; -626.000; -551.000
205.898;  -66.950; -501.000; -391.000
206.043;  -65.250; -578.000; -506.000
206.189;  -34.175; -243.000; -285.000
206.334;   76.950;  554.000;  606.000
206.480;   72.975;  409.000;  239.000
206.625;  -79.850; -529.000; -552.000
206.771;  -56.725; -451.000; -373.000
206.916;  -24.375; -210.000; -537.000
207.062;  -79.325; -545.000; -591.000
207.207;  -64.225; -546.000; -443.000
207.353;   36.850;  185.000;  460.000
207.498;   23.925;  196.000;   85.000
207.643;  -65.100; -501.000; -370.000
207.789; -137.975;-1069.000; -910.000
207.934; -109.450; -665.000; -713.000
208.080;  -31.000; -154.000;   66.000
208.225;  -12.750;  -22.000;  -57.000
208.370;  -91.875; -727.000; -619.000
208.516;  -81.225; -741.000; -487.000
208.661;  -25.650; -127.000;  -69.000
208.806;  -17.850; -165.000; -171.000
208.952; -126.825;-1044.000; -731.000
209.097;   67.500;  378.000;  349.000
209.242;  -49.525; -307.000; -382.000
209.387;   62.250;  392.000;  350.000
209.533;  -43.125; -321.000; -350.000
209.678;   76.800;  472.000;  543.000
209.823;  -59.050; -408.000; -310.000
209.969; -109.100; -860.000; -757.000
210.114; -104.975; -907.000; -719.000
210.259; -124.950; -939.000; -889.000
210.404;  -24.775; -171.000;  103.000
210.549;    1.450;  108.000;    3.000
210.695;  -26.575;   -3.000;  -95.000
210.840;   27.450;   94.000;   67.000
210.985;  -53.600; -484.000; -303.000
211.130;   63.250;  268.000;  406.000
211.275;   13.525;  207.000;  199.000
211.420;  -57.700; -300.000; -289.000
211.566;  -68.050; -536.000; -489.000
211.711;   18.950;  218.000;  157.000
211.856;  -59.175; -545.000; -519.000
212.001;    7.000;  151.000;   44.000
212.146;   24.625;  153.000;   49.000
212.291;  -18.875; -210.000; -186.000
212.436;  -27.900; -280.000;   -6.000
212.581;  -82.550; -685.000; -653.000
212.726;  -79.600; -487.000; -538.000
212.871;  -47.600; -552.000; -217.000
213.016; -153.525;-1172.000;-1029.000
213.161;   60.150;  406.000;  291.000
213.306;  -82.800; -435.000; -577.000
213.451; -102.475; -778.000; -689.000
213.596;  -41.000; -455.000; -347.000
213.741;  -58.150; -448.000; -538.000
213.886;  -79.650; -498.000; -517.000
214.031;  -38.150; -294.000; -124.000
214.176;  -54.025; -408.000; -341.000
214.321;  -14.800; -296.000; -157.000
214.466;  -31.850; -163.000;  -43.000
214.611;  -18.775;  -61.000;  -10.000
214.756; -116.575; -948.000; -858.000
214.901;  -25.800; -388.000; -226.000
215.046; -121.750; -797.000; -825.000
215.191;   21.175;  128.000;   35.000
215.336;  -11.700; -157.000;  -19.000
215.480;  -79.275; -684.000; -505.000
215.625;   -9.375; -175.000;  -19.000
215.770;  -85.700; -757.000; -662.000
215.915;  -24.950;   -5.000;  -97.000
216.060;    3.725; -113.000;  -21.000
216.205; -118.700; -731.000; -779.000
216.349;  -78.175; -470.000; -533.000
216.494; -132.425; -939.000; -867.000
216.639; -124.325; -823.000; -888.000
216.784;  -93.025; -577.000; -525.000
216.929;   56.925;  392.000;  281.000
217.073;  -23.800; -244.000;  -31.000
217.218;   -1.725;   78.000;  -47.000
217.363; -102.450; -656.000; -618.000
217.507;  -77.225; -623.000; -588.000
217.652; -123.225; -845.000; -874.000
217.797;  -95.975; -708.000; -659.000
217.942; -112.600; -856.000; -720.000
218.086;   72.875;  608.000;  539.000
218.231;  -14.800; -174.000;  -26.000
218.376;  -44.525; -337.000; -229.000
218.520;   -1.425;  -41.000;   96.000
218.665;  -44.600; -338.000; -204.000
218.810;  -29.775; -275.000; -233.000
218.954;   21.175;  201.000;   35.000
219.099; -116.400; -713.000; -963.000
219.243;  -77.975; -589.000; -554.000
219.388;  -33.825; -264.000; -136.000
219.532;  -17.200; -116.000; -116.000
219.677;  -75.125; -564.000; -521.000
219.822;   -2.450;   33.000;   89.000
219.966;  -12.625;   17.000;  -99.000
220.111;  -33.375; -328.000;  -40.000
220.255;  -92.650; -797.000; -750.000
220.400;  -20.725; -180.000; -146.000
220.544;  -65.950; -516.000; -450.000
220.689;  -47.050; -422.000; -451.000
220.833;  -27.225; -123.000;  -58.000
220.978;  -43.800; -393.000; -563.000
221.122;   24.050;  319.000;  307.000
221.267; -119.275; -906.000; -837.000
221.411;  -74.900; -478.000; -394.000
221.555;  -12.650; -104.000;  -23.000
221.700;  -52.975; -329.000; -222.000
221.844;   23.575;  255.000;  272.000
221.989;  -65.875; -328.000; -311.000
222.133;  -33.875; -289.000; -307.000
222.277;   -4.125;    5.000;   78.000
222.422;   14.275;  227.000;  113.000
222.566;  -32.675; -381.000; -214.000
222.711;  -73.875; -414.000; -479.000
222.855;  -74.925; -643.000; -586.000
222.999;  -83.800; -642.000; -717.000
223.144;  -30.700; -195.000; -194.000
223.288;   57.475;  423.000;  251.000
223.432;   38.325;  184.000;  230.000
223.576;   24.375;  152.000;  -21.000
223.721;   34.000;  364.000;  273.000
223.865;  -57.575; -472.000; -475.000
224.009;  258.225; 1673.000; 1631.000
224.153;  -80.925; -660.000; -671.000
224.298;  -70.875; -531.000; -489.000
224.442;   -9.625;  -74.000;  -33.000
224.586;  -21.425; -169.000; -106.000
224.730; -104.275; -858.000; -670.000
224.875; -127.725; -739.000; -688.000
225.019;    7.600;  102.000;  188.000
225.163;   50.550;  208.000;  341.000
225.307;    3.775;   97.000;  -91.000
225.451;   45.375;  360.000;  481.000
225.595;   18.625;  264.000;  176.000
225.739;  -18.175; -170.000;  -94.000
225.884;   -5.575;   86.000;    5.000
226.028;  -89.275; -760.000; -626.000
226.172;  -37.200; -260.000; -273.000
226.316; -124.400; -941.000; -902.000
226.460;  -63.225; -645.000; -493.000
226.604;  -55.150; -406.000; -400.000
226.748; -107.400; -836.000; -733.000
226.892;  -38.400; -227.000; -181.000
227.036;  -60.075; -537.000; -447.000
227.180;  -76.125; -551.000; -375.000
227.324;  -67.000; -561.000; -580.000
227.468; -114.375; -819.000; -717.000
227.612;    3.825;  242.000;  -28.000
227.756; -112.725; -845.000; -698.000
227.900;   48.125;  342.000;  441.000
228.044;  -60.825; -509.000; -290.000
228.188;   49.800;  448.000;  568.000
228.332;  -86.800; -546.000; -472.000
228.476;  -34.775; -223.000; -149.000
228.620;  -33.100; -210.000; -150.000
228.764;   67.200;  431.000;  349.000
228.908;  -17.325; -155.000;   30.000
229.052;  -61.025; -615.000; -528.000
229.195;   -4.975; -172.000;   13.000
229.339;  -32.200; -235.000; -305.000
229.483;  -22.950;    5.000; -162.000
229.627;  -11.325; -156.000;  139.000
229.771;  -51.825; -218.000; -294.000
229.915;    2.975;  230.000;   79.000
230.059; -105.200; -648.000; -663.000
230.202;  -49.800; -370.000; -317.000
230.346;  -13.250; -107.000;  107.000
230.490;  -71.575; -489.000; -521.000
230.634; -115.975; -736.000; -553.000
230.777;   71.375;  478.000;  509.000
230.921;  -46.250; -450.000; -359.000
231.065;  -38.375; -246.000; -286.000
231.209;   33.325;  261.000;  265.000
231.352;   19.800;   54.000;   40.000
231.496;   28.500;  568.000;  188.000
231.640;  -94.025; -693.000; -621.000
231.783;   51.975;  546.000;  525.000
231.927;  -50.975; -294.000; -365.000
232.071; -138.175; -962.000; -736.000
232.214; -115.450; -980.000; -764.000
232.358; -119.000; -683.000; -599.000
232.502;   -2.000;  -19.000;    7.000
232.645; -144.900;-1090.000; -927.000
232.789;  -26.375; -257.000; -218.000
232.933;  -44.500; -407.000; -224.000
233.076; -132.950;-1038.000; -897.000
233.220; -112.450; -752.000; -777.000
233.363;  -82.600; -669.000; -477.000
233.507;   59.200;  371.000;  129.000
233.650; -103.100; -764.000; -834.000
233.794;   34.950;  438.000;  461.000
233.938;  -67.300; -530.000; -362.000
234.081;  -21.650;  -93.000;   31.000
234.225;  -76.625; -631.000; -539.000
234.368; -115.025; -773.000; -723.000
234.512;  -46.825; -385.000; -299.000
234.655;  -91.850; -582.000; -555.000
234.798;  -78.375; -493.000; -466.000
234.942; -139.000; -884.000;-1002.000
235.085;  -76.100; -651.000; -443.000
235.229;  -79.375; -405.000; -410.000
235.372;  -43.050; -247.000; -191.000
235.516;  -61.550; -397.000; -321.000
235.659;   26.300;   92.000;  121.000
235.802;   -3.725;  -38.000;  -22.000
235.946;   19.250;  335.000;  215.000
236.089;   33.075;  126.000;  250.000
236.233;   43.775;  275.000;  298.000
236.376;  -52.000; -235.000; -378.000
236.519;  -44.675; -297.000; -319.000
236.663;  -23.625; -215.000; -117.000
236.806; -139.375;-1029.000; -999.000
236.949;   47.675;  543.000;  431.000
237.092;   50.475;  412.000;  391.000
237.236;  -96.475; -589.000; -502.000
237.379;   68.400;  352.000;  428.000
237.522; -133.600; -879.000; -768.000
237.666;  -14.500; -271.000;   18.000
237.809; -133.400; -851.000; -823.000
237.952;   39.425;  469.000;  271.000
238.095;  -81.800; -447.000; -442.000
238.238;   95.275;  688.000;  700.000
238.382;   -2.775;  166.000;  103.000
238.525;  -61.225; -598.000; -511.000
238.668; -138.975;-1060.000; -985.000
238.811;  -89.500; -638.000; -643.000
238.954;  -55.250; -483.000; -334.000
239.097;  105.075;  617.000;  664.000
239.241;   25.300;  394.000;  326.000
239.384;  -37.175; -254.000; -214.000
239.527;  -60.175; -424.000; -224.000
239.670; -145.475; -994.000;-1091.000
239.813; -109.825; -696.000; -658.000
239.956;   71.650;  579.000;  473.000
240.099; -131.075; -778.000; -725.000
240.242;   64.575;  428.000;  432.000
240.385;   36.625;  466.000;  450.000
240.528;  -81.100; -706.000; -473.000
240.671;   15.000;  189.000;  134.000
240.814;  -52.150; -441.000; -158.000
240.957; -104.875; -767.000; -578.000
241.100; -105.200; -779.000; -755.000
241.243; -148.975;-1234.000; -893.000
241.386;  -79.500; -508.000; -379.000
241.529;  -82.075; -735.000; -547.000
241.672;  -72.350; -566.000; -495.000
241.815; -120.825; -832.000; -808.000
241.958;  -37.350; -125.000; -182.000
242.101;  -77.950; -545.000; -390.000
242.244;  -49.825; -270.000; -325.000
242.387;  -44.875; -304.000; -246.000
242.530;   52.550;  470.000;  134.000
242.673;  -43.775; -381.000; -309.000
242.815; -124.050; -925.000; -899.000
242.958;  -70.025; -482.000; -381.000
243.101;   26.300;  132.000;  187.000
243.244;  -81.675; -564.000; -521.000
243.387;  -52.575; -313.000; -316.000
243.530;  -92.150; -657.000; -674.000
243.672;   -9.750;   43.000;  -92.000
243.815;  -52.150; -355.000; -283.000
243.958;   -4.550;   98.000;  -26.000
244.101;    1.900;   59.000;  -16.000
244.243;  -25.675;  -47.000;  101.000
244.386; -103.500; -761.000; -630.000
244.529;  -34.650; -132.000; -139.000
244.672; -161.500;-1154.000; -951.000
244.814;  -99.150; -621.000; -794.000
244.957;  -62.450; -380.000; -304.000
245.100;  -79.200; -489.000; -489.000
245.242;  -53.425; -387.000; -374.000
245.385;  -28.275;  -59.000;  -39.000
245.528; -126.950; -871.000; -705.000
245.670;   90.425;  612.000;  634.000
245.813;  -90.875; -599.000; -547.000
245.956;  -41.550; -324.000; -275.000
246.098;  -79.050; -508.000; -650.000
246.241;    4.800;  194.000;   48.000
246.383;  -14.900; -119.000;  -73.000
246.526;  -83.325; -454.000; -525.000
246.669; -114.875; -889.000; -780.000
246.811;   13.150;  172.000;   -1.000
246.954;  -65.600; -512.000; -426.000
247.096;  -23.825;  -84.000;   -6.000
247.239;  -79.775; -482.000; -445.000
247.381;  -74.400; -647.000; -488.000
247.524;   78.675;  645.000;  679.000
247.666;  -10.375;   58.000;   11.000
247.809; -116.500; -887.000; -691.000
247.951;  -13.525;  -75.000;  138.000
248.094;   25.625;  432.000;  308.000
248.236; -161.675;-1262.000;-1238.000
248.378;    4.200; -356.000;  -81.000
248.521;  -20.700; -334.000; -337.000
248.663;  -48.425; -236.000; -267.000
248.806;  -35.525; -300.000; -266.000
248.948;  -92.025; -886.000; -763.000
249.090;  -54.675; -428.000; -398.000
249.233;  -55.850; -344.000; -381.000
249.375;  -78.600; -474.000; -451.000
249.518;  -21.725;  -83.000; -133.000
249.660;  -23.300; -103.000;    3.000
249.802; -188.900;-1303.000;-1189.000
249.945;  -88.575; -612.000; -540.000
250.087; -116.350; -834.000; -768.000
250.229;  -61.125; -362.000; -480.000
250.371;  -82.000; -494.000; -439.000
250.514;  -53.925; -310.000; -244.000
250.656;  -72.125;   69.000;  102.000
250.798; -139.375; -849.000; -800.000
250.940;  -53.075; -322.000; -322.000
251.083;  -35.975; -335.000; -111.000
251.225;   53.525;  338.000;  310.000
251.367;  -50.850; -274.000; -373.000
251.509;  -28.950; -265.000; -210.000
251.651;  -95.350; -731.000; -671.000
251.794;   57.425;  538.000;  632.000
251.936; -120.550; -821.000; -747.000
252.078;  -88.600; -540.000; -461.000
252.220;  -86.025; -645.000; -477.000
252.362;   72.100;  344.000;  462.000
252.504;  -82.500; -677.000; -584.000
252.646; -126.825; -875.000; -722.000
252.788;  -16.725;   14.000; -128.000
252.931;  -56.625; -257.000; -253.000
253.073;  -55.825; -376.000; -317.000
253.215;   -5.725;  141.000;  122.000
253.357;  -20.350;   82.000; -153.000
253.499;  -56.700; -374.000; -234.000
253.641;  -99.650; -749.000; -594.000
253.783;  -98.375; -609.000; -527.000
253.925; -103.850; -586.000; -591.000
254.067; -122.325; -744.000; -667.000
254.209;  -35.625; -391.000; -259.000
254.351; -142.775; -865.000; -883.000
254.493;  -71.300; -441.000; -417.000
254.635; -144.450; -936.000; -818.000
254.777;  -92.150; -752.000; -687.000
254.918;  -84.850; -512.000; -430.000
255.060;  -73.125; -551.000; -395.000
255.202;  -55.475; -473.000; -261.000
255.344;  -75.875; -658.000; -455.000
255.486;  -76.075; -471.000; -406.000
255.628; -112.475; -780.000; -781.000
255.770;  -93.875; -676.000; -536.000
255.912;  -73.500; -559.000; -468.000
256.053;  -93.300; -730.000; -508.000
256.195;  158.625; 1008.000;  903.000
256.337; -109.075; -861.000; -595.000
256.479;   46.550;  532.000;  416.000
256.621;  -66.450; -394.000; -212.000
256.762;  -97.950; -789.000; -742.000
256.904;   47.700;  485.000;  487.000
257.046;  -47.925; -381.000; -271.000
257.188;  -56.300; -351.000; -264.000
257.329;  -75.775; -525.000; -464.000
257.471; -113.500; -939.000; -807.000
257.613;  -73.150; -584.000; -498.000
257.755; -156.700;-1073.000; -982.000
257.896;   30.950;  286.000;  392.000
258.038;  -75.425; -403.000; -352.000
258.180;  -49.400; -354.000; -279.000
258.321;  -94.600; -581.000; -457.000
258.463;  -17.400;  -71.000;  133.000
258.605; -107.975; -562.000; -570.000
258.746; -100.925; -886.000; -772.000
258.888; -153.625;-1026.000;-1020.000
259.029;   23.000;  121.000;   -8.000
259.171; -104.750; -614.000; -550.000
259.313;  -14.775;  -49.000;  -47.000
259.454;  -77.450; -536.000; -414.000
259.596;  -62.125; -483.000; -390.000
259.737;  -87.850; -590.000; -474.000
259.879;   36.500;  217.000;  311.000
260.020;   79.975;  901.000;  636.000
260.162;  -44.500; -146.000; -253.000
260.303; -118.225; -768.000; -687.000
260.445; -102.050; -609.000; -613.000
260.586;   20.400;  392.000;  157.000
260.728;  -52.075; -360.000; -248.000
260.869; -123.650; -350.000; -343.000
261.011;   66.825;  706.000;  537.000
261.152;  -66.150; -479.000; -319.000
261.293;  -85.575; -576.000; -595.000
261.435;  -40.925; -219.000; -184.000
261.576;  -56.800; -455.000; -325.000
261.718;   65.650;  420.000;  470.000
261.859; -132.200; -940.000; -949.000
262.000; -146.550; -951.000;-1016.000
262.142;  -29.950;  -52.000;  -60.000
262.283; -122.950; -808.000; -691.000
262.424;  -93.225; -666.000; -625.000
262.566; -166.125;-1161.000; -983.000
262.707; -119.450; -840.000; -830.000
262.848; -133.700; -769.000; -726.000
262.990;  -59.625; -362.000; -345.000
263.131;   84.275;  650.000;  681.000
263.272;  -10.475;  -61.000;  -41.000
263.413; -103.950; -589.000; -561.000
263.555;  -78.150; -669.000; -143.000
263.696;  -83.625; -550.000; -641.000
263.837;  -64.675; -449.000; -551.000
263.978;    2.625;   -5.000;  -77.000
264.119;  -50.500; -283.000; -264.000
264.261; -120.800; -847.000; -630.000
264.402;    0.100;   33.000;   40.000
264.543;  -87.325; -509.000; -524.000
264.684;  -18.825;   61.000;  -50.000
264.825;  -90.850; -816.000; -538.000
264.966;  -12.650;  -84.000;  -67.000
265.107; -106.975; -646.000; -670.000
265.248; -118.675; -825.000; -812.000
265.390;   -5.825;  152.000;   -9.000
265.531;  -29.250; -238.000; -107.000
265.672;  -97.050; -557.000; -630.000
265.813;   60.075;  563.000;  439.000
265.954; -142.500; -959.000; -940.000
266.095;   -8.975; -372.000; -322.000
266.236; -107.700; -686.000; -548.000
266.377;  -58.600; -243.000; -297.000
266.518;  -79.300; -619.000; -547.000
266.659;   17.050;  170.000;  268.000
266.800;   -9.975;   83.000;   85.000
266.941;  -79.650; -487.000; -478.000
267.082;   28.150;  354.000;   99.000
267.223;  -52.250; -344.000; -273.000
267.364; -106.800; -892.000; -686.000
267.504;  -11.050;    3.000;  135.000
267.645;   -6.050;  160.000;   67.000
267.786;  -35.950; -147.000;  -86.000
267.927;  -79.875; -473.000; -379.000
268.068;  -27.900; -186.000;  -61.000
268.209;  -54.975; -175.000; -413.000
268.350;  -62.900; -388.000; -532.000
268.490;  -91.650; -648.000; -521.000
268.631;   14.150;  127.000;  225.000
268.772; -120.150; -874.000; -647.000
268.913;  -70.075; -328.000; -476.000
269.054;  -14.725; -117.000;   12.000
269.194;  -49.650; -418.000; -402.000
269.335; -158.650;-1137.000;-1074.000
269.476;  -15.975;   33.000;  -35.000
269.617;  -57.150; -347.000; -392.000
269.757; -104.825; -713.000; -646.000
269.898; -109.150; -856.000; -613.000
270.039;  -68.025; -415.000; -405.000
270.180; -136.225; -952.000; -816.000
270.320;  -39.200; -190.000; -250.000
