
Integration time [ms]: 100.000
Averaging Nr. [scans]: 40
Smoothing Nr. [pixels]: 0
Data measured with spectrometer [name]: 2101012U2
Wave   ;Sample   ;Dark     ;Reference
[nm]   ;[counts] ;[counts] ;[counts] 

197.733;   48.325;  516.000;  404.000
197.879;  -66.200; -610.000; -634.000
198.025;  -52.700; -475.000; -420.000
198.171;  -55.175; -602.000; -612.000
198.317;  -32.675; -401.000; -316.000
198.463;  -61.550; -655.000; -404.000
198.609;    8.500;  181.000; -137.000
198.755;  -59.400; -644.000; -410.000
198.901;  -58.250; -505.000; -424.000
199.047;  -65.775; -615.000; -488.000
199.193;  -43.950; -230.000; -468.000
199.339;  -29.600; -222.000; -369.000
199.485;   33.775;  330.000;  271.000
199.631;   22.950;  227.000;  310.000
199.777;  -54.875; -466.000; -398.000
199.923;  -48.675; -610.000; -424.000
200.069;  -19.775; -141.000;  -58.000
200.215;   41.800;  128.000;  453.000
200.361;   51.500;  243.000;  477.000
200.507;  -61.500; -600.000; -373.000
200.653;  -32.200; -371.000; -194.000
200.798;  -29.100; -215.000; -125.000
200.944;    0.325; -146.000;  -41.000
201.090;   32.650;   61.000;  222.000
201.236;  -10.125; -116.000; -158.000
201.382;  123.900;  874.000;  903.000
201.528;   -4.650;  -58.000;  -48.000
201.674;  -65.400; -386.000; -293.000
201.819;  -67.700; -540.000; -439.000
201.965;  -84.125; -699.000; -447.000
202.111;  -33.325; -273.000; -226.000
202.257;  -41.975; -250.000; -238.000
202.402;   -5.175;   13.000;  -36.000
202.548;  -25.450; -169.000; -116.000
202.694;   73.775;  410.000; -183.000
202.840;  -73.300; -603.000; -531.000
202.985;  -78.200; -681.000; -639.000
203.131; -109.200; -832.000; -666.000
203.277;  -34.000; -199.000; -262.000
203.423;  -50.875; -434.000; -520.000
203.568;  -41.150; -462.000; -237.000
203.714;  -59.475; -535.000; -542.000
203.860;  -81.125; -682.000; -641.000
204.005;   15.650;  112.000;  167.000
204.151;   55.200;  561.000;  556.000
204.296;  -47.200; -354.000; -221.000
204.442;  -66.700; -600.000; -547.000
204.588;  -79.475; -592.000; -579.000
204.733;   11.625;  178.000;  168.000
204.879; -122.625;-1018.000; -822.000
205.025;   10.075;  -99.000;  126.000
205.170;    5.775;  -17.000;   94.000
205.316;   76.450;  438.000;  661.000
205.461;  -74.375; -698.000; -554.000
205.607;   71.975;  609.000;  665.000
205.752;  -72.575; -626.000; -551.000
205.898;  -46.275; -501.000; -391.000
206.043;  -59.775; -578.000; -506.000
206.189;  -49.175; -243.000; -285.000
206.334;   87.925;  554.000;  606.000
206.480;   81.525;  409.000;  239.000
206.625;  -85.975; -529.000; -552.000
206.771;  -60.375; -451.000; -373.000
206.916;  -32.875; -210.000; -537.000
207.062;  -80.975; -545.000; -591.000
207.207;  -62.500; -546.000; -443.000
207.353;   49.000;  185.000;  460.000
207.498;   12.925;  196.000;   85.000
207.643;  -59.475; -501.000; -370.000
207.789; -125.625;-1069.000; -910.000
207.934;  -98.950; -665.000; -713.000
208.080;  -28.425; -154.000;   66.000
208.225;  -13.175;  -22.000;  -57.000
208.370;  -77.600; -727.000; -619.000
208.516;  -72.200; -741.000; -487.000
208.661;  -23.300; -127.000;  -69.000
208.806;  -18.925; -165.000; -171.000
208.952; -113.625;-1044.000; -731.000
209.097;   73.775;  378.000;  349.000
209.242;  -43.600; -307.000; -382.000
209.387;   47.275;  392.000;  350.000
209.533;  -55.750; -321.000; -350.000
209.678;   62.025;  472.000;  543.000
209.823;  -48.750; -408.000; -310.000
209.969;  -96.925; -860.000; -757.000
210.114; -115.750; -907.000; -719.000
210.259; -123.925; -939.000; -889.000
210.404;  -13.025; -171.000;  103.000
210.549;    1.550;  108.000;    3.000
210.695;  -17.350;   -3.000;  -95.000
210.840;   21.100;   94.000;   67.000
210.985;  -61.775; -484.000; -303.000
211.130;   46.650;  268.000;  406.000
211.275;    7.800;  207.000;  199.000
211.420;  -59.275; -300.000; -289.000
211.566;  -66.300; -536.000; -489.000
211.711;    9.550;  218.000;  157.000
211.856;  -54.425; -545.000; -519.000
212.001;    9.650;  151.000;   44.000
212.146;   24.725;  153.000;   49.000
212.291;  -26.900; -210.000; -186.000
212.436;  -29.025; -280.000;   -6.000
212.581;  -98.075; -685.000; -653.000
212.726;  -62.625; -487.000; -538.000
212.871;  -59.700; -552.000; -217.000
213.016; -152.825;-1172.000;-1029.000
213.161;   63.150;  406.000;  291.000
213.306;  -78.625; -435.000; -577.000
213.451; -100.150; -778.000; -689.000
213.596;  -57.800; -455.000; -347.000
213.741;  -58.575; -448.000; -538.000
213.886;  -70.775; -498.000; -517.000
214.031;  -15.200; -294.000; -124.000
214.176;  -51.425; -408.000; -341.000
214.321;  -35.175; -296.000; -157.000
214.466;  -22.700; -163.000;  -43.000
214.611;   -9.575;  -61.000;  -10.000
214.756; -114.050; -948.000; -858.000
214.901;  -29.775; -388.000; -226.000
215.046; -111.850; -797.000; -825.000
215.191;   14.375;  128.000;   35.000
215.336;  -17.925; -157.000;  -19.000
215.480;  -69.100; -684.000; -505.000
215.625;  -11.725; -175.000;  -19.000
215.770;  -86.875; -757.000; -662.000
215.915;    6.625;   -5.000;  -97.000
216.060;  -20.150; -113.000;  -21.000
216.205; -104.600; -731.000; -779.000
216.349;  -70.950; -470.000; -533.000
216.494; -125.675; -939.000; -867.000
216.639; -108.700; -823.000; -888.000
216.784;  -90.750; -577.000; -525.000
216.929;   42.625;  392.000;  281.000
217.073;   -3.725; -244.000;  -31.000
217.218;   -2.075;   78.000;  -47.000
217.363;  -98.850; -656.000; -618.000
217.507;  -78.225; -623.000; -588.000
217.652; -104.700; -845.000; -874.000
217.797;  -81.125; -708.000; -659.000
217.942; -110.775; -856.000; -720.000
218.086;   67.850;  608.000;  539.000
218.231;  -37.925; -174.000;  -26.000
218.376;  -29.350; -337.000; -229.000
218.520;    0.850;  -41.000;   96.000
218.665;  -41.975; -338.000; -204.000
218.810;  -54.100; -275.000; -233.000
218.954;   11.725;  201.000;   35.000
219.099; -112.175; -713.000; -963.000
219.243;  -80.200; -589.000; -554.000
219.388;  -22.475; -264.000; -136.000
219.532;   -0.200; -116.000; -116.000
219.677;  -77.075; -564.000; -521.000
219.822;  -13.825;   33.000;   89.000
219.966;   10.100;   17.000;  -99.000
220.111;  -31.575; -328.000;  -40.000
220.255;  -84.725; -797.000; -750.000
220.400;  -22.950; -180.000; -146.000
220.544;  -71.775; -516.000; -450.000
220.689;  -62.475; -422.000; -451.000
220.833;  -25.175; -123.000;  -58.000
220.978;  -49.350; -393.000; -563.000
221.122;   25.800;  319.000;  307.000
221.267; -124.275; -906.000; -837.000
221.411;  -65.750; -478.000; -394.000
221.555;  -12.100; -104.000;  -23.000
221.700;  -47.650; -329.000; -222.000
221.844;   17.175;  255.000;  272.000
221.989;  -60.700; -328.000; -311.000
222.133;  -31.950; -289.000; -307.000
222.277;   -8.850;    5.000;   78.000
222.422;   12.275;  227.000;  113.000
222.566;  -41.600; -381.000; -214.000
222.711;  -61.900; -414.000; -479.000
222.855;  -74.825; -643.000; -586.000
222.999;  -79.525; -642.000; -717.000
223.144;  -32.450; -195.000; -194.000
223.288;   45.225;  423.000;  251.000
223.432;   26.700;  184.000;  230.000
223.576;    9.925;  152.000;  -21.000
223.721;   36.900;  364.000;  273.000
223.865;  -69.775; -472.000; -475.000
224.009;  245.225; 1673.000; 1631.000
224.153;  -79.450; -660.000; -671.000
224.298;  -66.775; -531.000; -489.000
224.442;  -16.125;  -74.000;  -33.000
224.586;  -22.350; -169.000; -106.000
224.730;  -84.775; -858.000; -670.000
224.875; -111.525; -739.000; -688.000
225.019;    8.350;  102.000;  188.000
225.163;   40.200;  208.000;  341.000
225.307;   14.325;   97.000;  -91.000
225.451;   42.425;  360.000;  481.000
225.595;   19.150;  264.000;  176.000
225.739;  -21.700; -170.000;  -94.000
225.884;    8.925;   86.000;    5.000
226.028;  -91.450; -760.000; -626.000
226.172;  -37.700; -260.000; -273.000
226.316; -119.100; -941.000; -902.000
226.460;  -74.075; -645.000; -493.000
226.604;  -47.875; -406.000; -400.000
226.748; -114.050; -836.000; -733.000
226.892;  -40.575; -227.000; -181.000
227.036;  -57.700; -537.000; -447.000
227.180;  -42.700; -551.000; -375.000
227.324;  -65.375; -561.000; -580.000
227.468; -111.300; -819.000; -717.000
227.612;   -0.025;  242.000;  -28.000
227.756; -105.250; -845.000; -698.000
227.900;   47.375;  342.000;  441.000
228.044;  -71.600; -509.000; -290.000
228.188;   50.675;  448.000;  568.000
228.332;  -85.625; -546.000; -472.000
228.476;  -26.225; -223.000; -149.000
228.620;  -25.625; -210.000; -150.000
228.764;   66.825;  431.000;  349.000
228.908;  -16.925; -155.000;   30.000
229.052;  -63.425; -615.000; -528.000
229.195;  -15.500; -172.000;   13.000
229.339;  -28.875; -235.000; -305.000
229.483;  -35.125;    5.000; -162.000
229.627;  -15.800; -156.000;  139.000
229.771;  -52.875; -218.000; -294.000
229.915;   15.575;  230.000;   79.000
230.059;  -85.800; -648.000; -663.000
230.202;  -51.250; -370.000; -317.000
230.346;  -21.950; -107.000;  107.000
230.490;  -68.225; -489.000; -521.000
230.634; -105.550; -736.000; -553.000
230.777;   66.650;  478.000;  509.000
230.921;  -63.825; -450.000; -359.000
231.065;  -42.050; -246.000; -286.000
231.209;   21.025;  261.000;  265.000
231.352;   28.850;   54.000;   40.000
231.496;   13.400;  568.000;  188.000
231.640;  -79.450; -693.000; -621.000
231.783;   59.650;  546.000;  525.000
231.927;  -35.625; -294.000; -365.000
232.071; -118.650; -962.000; -736.000
232.214; -118.775; -980.000; -764.000
232.358;  -96.775; -683.000; -599.000
232.502;    0.125;  -19.000;    7.000
232.645; -132.900;-1090.000; -927.000
232.789;  -26.225; -257.000; -218.000
232.933;  -34.450; -407.000; -224.000
233.076; -118.275;-1038.000; -897.000
233.220; -108.300; -752.000; -777.000
233.363;  -76.050; -669.000; -477.000
233.507;   49.875;  371.000;  129.000
233.650;  -89.300; -764.000; -834.000
233.794;   39.650;  438.000;  461.000
233.938;  -63.775; -530.000; -362.000
234.081;  -12.600;  -93.000;   31.000
234.225;  -64.975; -631.000; -539.000
234.368; -114.775; -773.000; -723.000
234.512;  -41.050; -385.000; -299.000
234.655;  -95.600; -582.000; -555.000
234.798;  -74.100; -493.000; -466.000
234.942; -129.600; -884.000;-1002.000
235.085;  -76.350; -651.000; -443.000
235.229;  -65.150; -405.000; -410.000
235.372;  -45.900; -247.000; -191.000
235.516;  -66.450; -397.000; -321.000
235.659;    8.850;   92.000;  121.000
235.802;  -10.525;  -38.000;  -22.000
235.946;    8.875;  335.000;  215.000
236.089;   38.275;  126.000;  250.000
236.233;   55.650;  275.000;  298.000
236.376;  -57.625; -235.000; -378.000
236.519;  -51.825; -297.000; -319.000
236.663;  -17.250; -215.000; -117.000
236.806; -123.425;-1029.000; -999.000
236.949;   46.350;  543.000;  431.000
237.092;   45.575;  412.000;  391.000
237.236;  -80.300; -589.000; -502.000
237.379;   62.950;  352.000;  428.000
237.522; -118.300; -879.000; -768.000
237.666;  -18.925; -271.000;   18.000
237.809; -123.475; -851.000; -823.000
237.952;   28.700;  469.000;  271.000
238.095;  -75.100; -447.000; -442.000
238.238;   71.275;  688.000;  700.000
238.382;    5.200;  166.000;  103.000
238.525;  -77.925; -598.000; -511.000
238.668; -134.500;-1060.000; -985.000
238.811;  -83.125; -638.000; -643.000
238.954;  -57.325; -483.000; -334.000
239.097;   74.800;  617.000;  664.000
239.241;   22.525;  394.000;  326.000
239.384;  -41.150; -254.000; -214.000
239.527;  -66.450; -424.000; -224.000
239.670; -150.825; -994.000;-1091.000
239.813; -104.100; -696.000; -658.000
239.956;   65.825;  579.000;  473.000
240.099; -117.675; -778.000; -725.000
240.242;   51.850;  428.000;  432.000
240.385;   40.475;  466.000;  450.000
240.528;  -81.225; -706.000; -473.000
240.671;   19.875;  189.000;  134.000
240.814;  -50.800; -441.000; -158.000
240.957;  -97.325; -767.000; -578.000
241.100; -105.025; -779.000; -755.000
241.243; -143.075;-1234.000; -893.000
241.386;  -71.225; -508.000; -379.000
241.529;  -93.200; -735.000; -547.000
241.672;  -71.650; -566.000; -495.000
241.815; -115.575; -832.000; -808.000
241.958;  -35.150; -125.000; -182.000
242.101;  -79.100; -545.000; -390.000
242.244;  -47.275; -270.000; -325.000
242.387;  -43.250; -304.000; -246.000
242.530;   45.500;  470.000;  134.000
242.673;  -50.450; -381.000; -309.000
242.815; -119.525; -925.000; -899.000
242.958;  -70.350; -482.000; -381.000
243.101;    8.350;  132.000;  187.000
243.244;  -78.300; -564.000; -521.000
243.387;  -51.775; -313.000; -316.000
243.530;  -93.950; -657.000; -674.000
243.672;   -0.025;   43.000;  -92.000
243.815;  -56.175; -355.000; -283.000
243.958;  -15.300;   98.000;  -26.000
244.101;   -3.050;   59.000;  -16.000
244.243;  -24.475;  -47.000;  101.000
244.386; -118.675; -761.000; -630.000
244.529;  -33.875; -132.000; -139.000
244.672; -147.575;-1154.000; -951.000
244.814; -100.500; -621.000; -794.000
244.957;  -57.800; -380.000; -304.000
245.100;  -79.925; -489.000; -489.000
245.242;  -57.000; -387.000; -374.000
245.385;   -7.075;  -59.000;  -39.000
245.528; -111.200; -871.000; -705.000
245.670;   80.275;  612.000;  634.000
245.813;  -80.525; -599.000; -547.000
245.956;  -34.950; -324.000; -275.000
246.098;  -75.750; -508.000; -650.000
246.241;    1.275;  194.000;   48.000
246.383;  -20.525; -119.000;  -73.000
246.526;  -80.650; -454.000; -525.000
246.669; -113.450; -889.000; -780.000
246.811;   10.000;  172.000;   -1.000
246.954;  -63.800; -512.000; -426.000
247.096;  -26.875;  -84.000;   -6.000
247.239;  -66.125; -482.000; -445.000
247.381;  -72.975; -647.000; -488.000
247.524;   88.475;  645.000;  679.000
247.666;  -18.650;   58.000;   11.000
247.809; -115.650; -887.000; -691.000
247.951;  -22.700;  -75.000;  138.000
248.094;   23.275;  432.000;  308.000
248.236; -169.875;-1262.000;-1238.000
248.378;   -6.950; -356.000;  -81.000
248.521;  -19.650; -334.000; -337.000
248.663;  -53.775; -236.000; -267.000
248.806;  -30.750; -300.000; -266.000
248.948;  -91.400; -886.000; -763.000
249.090;  -44.825; -428.000; -398.000
249.233;  -53.875; -344.000; -381.000
249.375;  -71.725; -474.000; -451.000
249.518;  -24.075;  -83.000; -133.000
249.660;   -6.425; -103.000;    3.000
249.802; -163.275;-1303.000;-1189.000
249.945;  -72.950; -612.000; -540.000
250.087; -108.750; -834.000; -768.000
250.229;  -58.800; -362.000; -480.000
250.371;  -75.475; -494.000; -439.000
250.514;  -50.550; -310.000; -244.000
250.656;   -1.350;   69.000;  102.000
250.798; -125.600; -849.000; -800.000
250.940;  -64.025; -322.000; -322.000
251.083;  -37.000; -335.000; -111.000
251.225;   56.075;  338.000;  310.000
251.367;  -45.900; -274.000; -373.000
251.509;  -37.200; -265.000; -210.000
251.651;  -93.700; -731.000; -671.000
251.794;   52.500;  538.000;  632.000
251.936; -105.925; -821.000; -747.000
252.078;  -75.900; -540.000; -461.000
252.220;  -75.425; -645.000; -477.000
252.362;   88.375;  344.000;  462.000
252.504;  -76.200; -677.000; -584.000
252.646; -107.300; -875.000; -722.000
252.788;   -5.875;   14.000; -128.000
252.931;  -29.150; -257.000; -253.000
253.073;  -45.150; -376.000; -317.000
253.215;  -14.375;  141.000;  122.000
253.357;  -15.100;   82.000; -153.000
253.499;  -44.375; -374.000; -234.000
253.641;  -87.625; -749.000; -594.000
253.783;  -87.000; -609.000; -527.000
253.925;  -85.450; -586.000; -591.000
254.067; -101.425; -744.000; -667.000
254.209;  -19.625; -391.000; -259.000
254.351; -125.075; -865.000; -883.000
254.493;  -66.100; -441.000; -417.000
254.635; -126.050; -936.000; -818.000
254.777; -103.550; -752.000; -687.000
254.918;  -65.250; -512.000; -430.000
255.060;  -60.350; -551.000; -395.000
255.202;  -54.550; -473.000; -261.000
255.344;  -72.900; -658.000; -455.000
255.486;  -70.000; -471.000; -406.000
255.628; -104.975; -780.000; -781.000
255.770; -109.025; -676.000; -536.000
255.912;  -61.975; -559.000; -468.000
256.053;  -85.350; -730.000; -508.000
256.195;  151.225; 1008.000;  903.000
256.337;  -93.600; -861.000; -595.000
256.479;   71.325;  532.000;  416.000
256.621;  -37.125; -394.000; -212.000
256.762; -105.975; -789.000; -742.000
256.904;   40.900;  485.000;  487.000
257.046;  -42.200; -381.000; -271.000
257.188;  -41.500; -351.000; -264.000
257.329;  -74.100; -525.000; -464.000
257.471; -110.125; -939.000; -807.000
257.613;  -65.450; -584.000; -498.000
257.755; -132.025;-1073.000; -982.000
257.896;   20.300;  286.000;  392.000
258.038;  -60.400; -403.000; -352.000
258.180;  -46.375; -354.000; -279.000
258.321;  -85.300; -581.000; -457.000
258.463;   -3.225;  -71.000;  133.000
258.605;  -90.750; -562.000; -570.000
258.746; -108.000; -886.000; -772.000
258.888; -154.725;-1026.000;-1020.000
259.029;    0.950;  121.000;   -8.000
259.171;  -87.925; -614.000; -550.000
259.313;   -1.875;  -49.000;  -47.000
259.454;  -66.225; -536.000; -414.000
259.596;  -59.000; -483.000; -390.000
259.737;  -72.300; -590.000; -474.000
259.879;   32.300;  217.000;  311.000
260.020;   90.675;  901.000;  636.000
260.162;  -37.000; -146.000; -253.000
260.303; -118.125; -768.000; -687.000
260.445;  -88.525; -609.000; -613.000
260.586;   18.975;  392.000;  157.000
260.728;  -42.925; -360.000; -248.000
260.869; -115.375; -350.000; -343.000
261.011;   76.800;  706.000;  537.000
261.152;  -53.450; -479.000; -319.000
261.293;  -78.475; -576.000; -595.000
261.435;  -29.550; -219.000; -184.000
261.576;  -47.000; -455.000; -325.000
261.718;   47.175;  420.000;  470.000
261.859; -117.825; -940.000; -949.000
262.000; -136.000; -951.000;-1016.000
262.142;  -21.275;  -52.000;  -60.000
262.283; -118.725; -808.000; -691.000
262.424;  -95.225; -666.000; -625.000
262.566; -142.025;-1161.000; -983.000
262.707; -130.250; -840.000; -830.000
262.848; -116.725; -769.000; -726.000
262.990;  -56.550; -362.000; -345.000
263.131;   74.575;  650.000;  681.000
263.272;  -22.525;  -61.000;  -41.000
263.413; -100.675; -589.000; -561.000
263.555;  -65.325; -669.000; -143.000
263.696;  -76.525; -550.000; -641.000
263.837;  -62.725; -449.000; -551.000
263.978;    3.600;   -5.000;  -77.000
264.119;  -58.250; -283.000; -264.000
264.261; -112.175; -847.000; -630.000
264.402;  -14.225;   33.000;   40.000
264.543;  -73.500; -509.000; -524.000
264.684;  -16.375;   61.000;  -50.000
264.825;  -77.200; -816.000; -538.000
264.966;   -3.950;  -84.000;  -67.000
265.107; -103.500; -646.000; -670.000
265.248; -126.025; -825.000; -812.000
265.390;   -0.050;  152.000;   -9.000
265.531;  -33.900; -238.000; -107.000
265.672;  -77.900; -557.000; -630.000
265.813;   72.600;  563.000;  439.000
265.954; -137.900; -959.000; -940.000
266.095;  -25.000; -372.000; -322.000
266.236;  -83.675; -686.000; -548.000
266.377;  -34.675; -243.000; -297.000
266.518;  -78.275; -619.000; -547.000
266.659;    5.775;  170.000;  268.000
266.800;   13.250;   83.000;   85.000
266.941;  -77.525; -487.000; -478.000
267.082;    4.575;  354.000;   99.000
267.223;  -60.350; -344.000; -273.000
267.364; -121.000; -892.000; -686.000
267.504;  -27.400;    3.000;  135.000
267.645;    3.050;  160.000;   67.000
267.786;  -32.975; -147.000;  -86.000
267.927;  -57.775; -473.000; -379.000
268.068;  -14.975; -186.000;  -61.000
268.209;  -50.075; -175.000; -413.000
268.350;  -72.000; -388.000; -532.000
268.490;  -87.600; -648.000; -521.000
268.631;    9.725;  127.000;  225.000
268.772;  -98.175; -874.000; -647.000
268.913;  -52.175; -328.000; -476.000
269.054;  -12.350; -117.000;   12.000
269.194;  -61.175; -418.000; -402.000
269.335; -152.775;-1137.000;-1074.000
269.476;  -17.300;   33.000;  -35.000
269.617;  -37.725; -347.000; -392.000
269.757;  -91.225; -713.000; -646.000
269.898; -102.775; -856.000; -613.000
270.039;  -67.075; -415.000; -405.000
270.180; -129.750; -952.000; -816.000
270.320;  -18.475; -190.000; -250.000
