
Integration time [ms]: 100.000
Averaging Nr. [scans]: 40
Smoothing Nr. [pixels]: 0
Data measured with spectrometer [name]: 2101012U2
Wave   ;Sample   ;Dark     ;Reference
[nm]   ;[counts] ;[counts] ;[counts] 

197.733;   54.150;  516.000;  404.000
197.879;  -77.200; -610.000; -634.000
198.025;  -58.975; -475.000; -420.000
198.171;  -69.325; -602.000; -612.000
198.317;  -42.700; -401.000; -316.000
198.463;  -59.150; -655.000; -404.000
198.609;   28.950;  181.000; -137.000
198.755;  -83.425; -644.000; -410.000
198.901;  -93.150; -505.000; -424.000
199.047;  -76.975; -615.000; -488.000
199.193;  -45.825; -230.000; -468.000
199.339;  -46.050; -222.000; -369.000
199.485;   50.300;  330.000;  271.000
199.631;   26.075;  227.000;  310.000
199.777;  -59.450; -466.000; -398.000
199.923;  -60.575; -610.000; -424.000
200.069;   -0.100; -141.000;  -58.000
200.215;   58.925;  128.000;  453.000
200.361;   48.600;  243.000;  477.000
200.507;  -53.550; -600.000; -373.000
200.653;  -24.900; -371.000; -194.000
200.798;  -31.750; -215.000; -125.000
200.944;    2.400; -146.000;  -41.000
201.090;   53.950;   61.000;  222.000
201.236;   -8.500; -116.000; -158.000
201.382;  144.400;  874.000;  903.000
201.528;    6.900;  -58.000;  -48.000
201.674;  -12.150; -386.000; -293.000
201.819;  -74.925; -540.000; -439.000
201.965;  -78.800; -699.000; -447.000
202.111;  -20.700; -273.000; -226.000
202.257;  -40.900; -250.000; -238.000
202.402;   14.050;   13.000;  -36.000
202.548;  -27.525; -169.000; -116.000
202.694;   76.525;  410.000; -183.000
202.840;  -73.675; -603.000; -531.000
202.985;  -57.950; -681.000; -639.000
203.131; -110.000; -832.000; -666.000
203.277;  -27.025; -199.000; -262.000
203.423;  -32.950; -434.000; -520.000
203.568;  -32.325; -462.000; -237.000
203.714;  -55.275; -535.000; -542.000
203.860;  -79.975; -682.000; -641.000
204.005;   12.325;  112.000;  167.000
204.151;   71.350;  561.000;  556.000
204.296;  -33.525; -354.000; -221.000
204.442;  -77.450; -600.000; -547.000
204.588;  -81.875; -592.000; -579.000
204.733;   26.900;  178.000;  168.000
204.879; -116.975;-1018.000; -822.000
205.025;    5.375;  -99.000;  126.000
205.170;    4.125;  -17.000;   94.000
205.316;   70.650;  438.000;  661.000
205.461;  -79.550; -698.000; -554.000
205.607;   86.150;  609.000;  665.000
205.752;  -76.200; -626.000; -551.000
205.898;  -62.525; -501.000; -391.000
206.043;  -54.500; -578.000; -506.000
206.189;  -33.325; -243.000; -285.000
206.334;   89.200;  554.000;  606.000
206.480;   90.350;  409.000;  239.000
206.625;  -84.975; -529.000; -552.000
206.771;  -41.425; -451.000; -373.000
206.916;  -18.775; -210.000; -537.000
207.062;  -79.825; -545.000; -591.000
207.207;  -57.575; -546.000; -443.000
207.353;   55.075;  185.000;  460.000
207.498;   20.675;  196.000;   85.000
207.643;  -47.075; -501.000; -370.000
207.789; -133.350;-1069.000; -910.000
207.934;  -98.025; -665.000; -713.000
208.080;  -25.150; -154.000;   66.000
208.225;   -3.550;  -22.000;  -57.000
208.370;  -81.450; -727.000; -619.000
208.516;  -73.675; -741.000; -487.000
208.661;  -29.950; -127.000;  -69.000
208.806;  -13.125; -165.000; -171.000
208.952; -134.475;-1044.000; -731.000
209.097;   79.675;  378.000;  349.000
209.242;  -44.025; -307.000; -382.000
209.387;   76.325;  392.000;  350.000
209.533;  -43.350; -321.000; -350.000
209.678;   83.600;  472.000;  543.000
209.823;  -47.175; -408.000; -310.000
209.969; -104.125; -860.000; -757.000
210.114;  -97.750; -907.000; -719.000
210.259; -110.750; -939.000; -889.000
210.404;    2.875; -171.000;  103.000
210.549;    5.200;  108.000;    3.000
210.695;   -2.225;   -3.000;  -95.000
210.840;   46.850;   94.000;   67.000
210.985;  -55.200; -484.000; -303.000
211.130;   66.900;  268.000;  406.000
211.275;   21.500;  207.000;  199.000
211.420;  -54.600; -300.000; -289.000
211.566;  -71.750; -536.000; -489.000
211.711;   30.125;  218.000;  157.000
211.856;  -67.425; -545.000; -519.000
212.001;    5.825;  151.000;   44.000
212.146;   26.325;  153.000;   49.000
212.291;  -23.075; -210.000; -186.000
212.436;  -12.025; -280.000;   -6.000
212.581;  -87.850; -685.000; -653.000
212.726;  -77.000; -487.000; -538.000
212.871;  -45.975; -552.000; -217.000
213.016; -140.925;-1172.000;-1029.000
213.161;   70.675;  406.000;  291.000
213.306;  -71.875; -435.000; -577.000
213.451;  -95.825; -778.000; -689.000
213.596;  -27.975; -455.000; -347.000
213.741;  -49.200; -448.000; -538.000
213.886;  -63.550; -498.000; -517.000
214.031;  -23.925; -294.000; -124.000
214.176;  -39.625; -408.000; -341.000
214.321;  -23.225; -296.000; -157.000
214.466;  -26.975; -163.000;  -43.000
214.611;   -0.300;  -61.000;  -10.000
214.756; -119.725; -948.000; -858.000
214.901;  -34.175; -388.000; -226.000
215.046; -117.750; -797.000; -825.000
215.191;   21.975;  128.000;   35.000
215.336;   -6.475; -157.000;  -19.000
215.480;  -75.750; -684.000; -505.000
215.625;   -3.075; -175.000;  -19.000
215.770;  -96.375; -757.000; -662.000
215.915;    0.900;   -5.000;  -97.000
216.060;  -15.450; -113.000;  -21.000
216.205; -100.200; -731.000; -779.000
216.349;  -65.875; -470.000; -533.000
216.494; -128.275; -939.000; -867.000
216.639; -111.600; -823.000; -888.000
216.784;  -87.225; -577.000; -525.000
216.929;   57.425;  392.000;  281.000
217.073;   -2.100; -244.000;  -31.000
217.218;   -1.850;   78.000;  -47.000
217.363;  -79.500; -656.000; -618.000
217.507;  -86.175; -623.000; -588.000
217.652; -128.625; -845.000; -874.000
217.797;  -93.375; -708.000; -659.000
217.942;  -96.175; -856.000; -720.000
218.086;   83.850;  608.000;  539.000
218.231;  -12.175; -174.000;  -26.000
218.376;  -31.450; -337.000; -229.000
218.520;   28.325;  -41.000;   96.000
218.665;  -34.250; -338.000; -204.000
218.810;  -35.725; -275.000; -233.000
218.954;   24.550;  201.000;   35.000
219.099; -103.575; -713.000; -963.000
219.243;  -76.775; -589.000; -554.000
219.388;  -32.450; -264.000; -136.000
219.532;  -12.225; -116.000; -116.000
219.677;  -64.300; -564.000; -521.000
219.822;   -4.150;   33.000;   89.000
219.966;    7.425;   17.000;  -99.000
220.111;  -37.250; -328.000;  -40.000
220.255;  -91.075; -797.000; -750.000
220.400;  -25.625; -180.000; -146.000
220.544;  -70.350; -516.000; -450.000
220.689;  -58.925; -422.000; -451.000
220.833;  -16.450; -123.000;  -58.000
220.978;  -42.325; -393.000; -563.000
221.122;   30.225;  319.000;  307.000
221.267; -116.575; -906.000; -837.000
221.411;  -67.575; -478.000; -394.000
221.555;  -19.675; -104.000;  -23.000
221.700;  -47.400; -329.000; -222.000
221.844;   43.775;  255.000;  272.000
221.989;  -47.900; -328.000; -311.000
222.133;  -37.675; -289.000; -307.000
222.277;    5.350;    5.000;   78.000
222.422;   19.250;  227.000;  113.000
222.566;  -23.975; -381.000; -214.000
222.711;  -57.850; -414.000; -479.000
222.855;  -67.050; -643.000; -586.000
222.999;  -82.050; -642.000; -717.000
223.144;  -20.025; -195.000; -194.000
223.288;   51.450;  423.000;  251.000
223.432;   40.650;  184.000;  230.000
223.576;    7.300;  152.000;  -21.000
223.721;   42.925;  364.000;  273.000
223.865;  -65.350; -472.000; -475.000
224.009;  223.350; 1673.000; 1631.000
224.153;  -93.275; -660.000; -671.000
224.298;  -64.925; -531.000; -489.000
224.442;  -15.925;  -74.000;  -33.000
224.586;   -6.275; -169.000; -106.000
224.730;  -99.650; -858.000; -670.000
224.875; -106.000; -739.000; -688.000
225.019;    8.450;  102.000;  188.000
225.163;   57.650;  208.000;  341.000
225.307;   16.575;   97.000;  -91.000
225.451;   50.600;  360.000;  481.000
225.595;   31.850;  264.000;  176.000
225.739;  -10.925; -170.000;  -94.000
225.884;   -3.050;   86.000;    5.000
226.028;  -99.075; -760.000; -626.000
226.172;  -41.175; -260.000; -273.000
226.316; -122.950; -941.000; -902.000
226.460;  -62.650; -645.000; -493.000
226.604;  -50.125; -406.000; -400.000
226.748; -112.125; -836.000; -733.000
226.892;  -23.450; -227.000; -181.000
227.036;  -43.150; -537.000; -447.000
227.180;  -52.725; -551.000; -375.000
227.324;  -66.300; -561.000; -580.000
227.468; -112.800; -819.000; -717.000
227.612;   13.575;  242.000;  -28.000
227.756; -102.025; -845.000; -698.000
227.900;   57.225;  342.000;  441.000
228.044;  -57.700; -509.000; -290.000
228.188;   51.925;  448.000;  568.000
228.332;  -89.525; -546.000; -472.000
228.476;  -31.025; -223.000; -149.000
228.620;  -23.425; -210.000; -150.000
228.764;   74.150;  431.000;  349.000
228.908;  -24.525; -155.000;   30.000
229.052;  -65.500; -615.000; -528.000
229.195;  -13.100; -172.000;   13.000
229.339;  -29.200; -235.000; -305.000
229.483;  -28.025;    5.000; -162.000
229.627;  -12.125; -156.000;  139.000
229.771;  -33.475; -218.000; -294.000
229.915;    8.725;  230.000;   79.000
230.059;  -88.775; -648.000; -663.000
230.202;  -47.375; -370.000; -317.000
230.346;   -8.275; -107.000;  107.000
230.490;  -65.450; -489.000; -521.000
230.634; -103.075; -736.000; -553.000
230.777;   67.650;  478.000;  509.000
230.921;  -58.450; -450.000; -359.000
231.065;  -44.625; -246.000; -286.000
231.209;   48.700;  261.000;  265.000
231.352;   17.300;   54.000;   40.000
231.496;   21.675;  568.000;  188.000
231.640;  -74.675; -693.000; -621.000
231.783;   74.375;  546.000;  525.000
231.927;  -55.325; -294.000; -365.000
232.071; -109.875; -962.000; -736.000
232.214; -119.475; -980.000; -764.000
232.358;  -94.375; -683.000; -599.000
232.502;    9.025;  -19.000;    7.000
232.645; -136.050;-1090.000; -927.000
232.789;  -12.375; -257.000; -218.000
232.933;  -43.700; -407.000; -224.000
233.076; -128.300;-1038.000; -897.000
233.220; -107.425; -752.000; -777.000
233.363;  -74.200; -669.000; -477.000
233.507;   66.925;  371.000;  129.000
233.650;  -84.125; -764.000; -834.000
233.794;   68.625;  438.000;  461.000
233.938;  -72.125; -530.000; -362.000
234.081;  -14.025;  -93.000;   31.000
234.225;  -53.050; -631.000; -539.000
234.368; -121.125; -773.000; -723.000
234.512;  -32.900; -385.000; -299.000
234.655;  -83.325; -582.000; -555.000
234.798;  -68.325; -493.000; -466.000
234.942; -122.150; -884.000;-1002.000
235.085;  -69.300; -651.000; -443.000
235.229;  -80.325; -405.000; -410.000
235.372;  -54.800; -247.000; -191.000
235.516;  -66.925; -397.000; -321.000
235.659;   17.300;   92.000;  121.000
235.802;   -6.550;  -38.000;  -22.000
235.946;   26.150;  335.000;  215.000
236.089;   45.450;  126.000;  250.000
236.233;   57.850;  275.000;  298.000
236.376;  -49.625; -235.000; -378.000
236.519;  -43.300; -297.000; -319.000
236.663;  -32.200; -215.000; -117.000
236.806; -138.050;-1029.000; -999.000
236.949;   59.250;  543.000;  431.000
237.092;   53.050;  412.000;  391.000
237.236;  -77.425; -589.000; -502.000
237.379;   82.475;  352.000;  428.000
237.522; -111.975; -879.000; -768.000
237.666;  -18.725; -271.000;   18.000
237.809; -122.450; -851.000; -823.000
237.952;   46.100;  469.000;  271.000
238.095;  -67.475; -447.000; -442.000
238.238;   73.425;  688.000;  700.000
238.382;    0.325;  166.000;  103.000
238.525;  -65.200; -598.000; -511.000
238.668; -131.450;-1060.000; -985.000
238.811;  -85.925; -638.000; -643.000
238.954;  -53.225; -483.000; -334.000
239.097;   97.875;  617.000;  664.000
239.241;   28.925;  394.000;  326.000
239.384;  -42.450; -254.000; -214.000
239.527;  -55.400; -424.000; -224.000
239.670; -158.050; -994.000;-1091.000
239.813; -102.725; -696.000; -658.000
239.956;   78.225;  579.000;  473.000
240.099; -110.925; -778.000; -725.000
240.242;   68.550;  428.000;  432.000
240.385;   43.850;  466.000;  450.000
240.528;  -81.975; -706.000; -473.000
240.671;   17.200;  189.000;  134.000
240.814;  -51.050; -441.000; -158.000
240.957; -102.450; -767.000; -578.000
241.100; -102.425; -779.000; -755.000
241.243; -134.725;-1234.000; -893.000
241.386;  -68.225; -508.000; -379.000
241.529; -100.000; -735.000; -547.000
241.672;  -71.525; -566.000; -495.000
241.815; -118.050; -832.000; -808.000
241.958;  -27.500; -125.000; -182.000
242.101;  -83.750; -545.000; -390.000
242.244;  -36.525; -270.000; -325.000
242.387;  -43.675; -304.000; -246.000
242.530;   67.125;  470.000;  134.000
242.673;  -38.050; -381.000; -309.000
242.815; -123.925; -925.000; -899.000
242.958;  -71.200; -482.000; -381.000
243.101;   20.625;  132.000;  187.000
243.244;  -92.400; -564.000; -521.000
243.387;  -48.525; -313.000; -316.000
243.530; -106.850; -657.000; -674.000
243.672;    0.900;   43.000;  -92.000
243.815;  -50.625; -355.000; -283.000
243.958;   -9.450;   98.000;  -26.000
244.101;    7.600;   59.000;  -16.000
244.243;  -10.875;  -47.000;  101.000
244.386; -114.200; -761.000; -630.000
244.529;  -22.425; -132.000; -139.000
244.672; -146.000;-1154.000; -951.000
244.814; -111.050; -621.000; -794.000
244.957;  -74.500; -380.000; -304.000
245.100;  -89.150; -489.000; -489.000
245.242;  -67.850; -387.000; -374.000
245.385;  -11.725;  -59.000;  -39.000
245.528; -111.050; -871.000; -705.000
245.670;   87.225;  612.000;  634.000
245.813;  -78.200; -599.000; -547.000
245.956;  -37.800; -324.000; -275.000
246.098;  -67.350; -508.000; -650.000
246.241;    3.775;  194.000;   48.000
246.383;  -13.750; -119.000;  -73.000
246.526;  -78.725; -454.000; -525.000
246.669; -111.650; -889.000; -780.000
246.811;    5.450;  172.000;   -1.000
246.954;  -67.475; -512.000; -426.000
247.096;  -23.050;  -84.000;   -6.000
247.239;  -59.175; -482.000; -445.000
247.381;  -78.350; -647.000; -488.000
247.524;  101.275;  645.000;  679.000
247.666;    5.025;   58.000;   11.000
247.809; -111.100; -887.000; -691.000
247.951;  -16.800;  -75.000;  138.000
248.094;   28.300;  432.000;  308.000
248.236; -185.950;-1262.000;-1238.000
248.378;   10.375; -356.000;  -81.000
248.521;  -27.325; -334.000; -337.000
248.663;  -42.625; -236.000; -267.000
248.806;  -27.375; -300.000; -266.000
248.948;  -95.400; -886.000; -763.000
249.090;  -52.850; -428.000; -398.000
249.233;  -44.500; -344.000; -381.000
249.375;  -69.425; -474.000; -451.000
249.518;  -13.575;  -83.000; -133.000
249.660;  -10.025; -103.000;    3.000
249.802; -174.450;-1303.000;-1189.000
249.945;  -83.550; -612.000; -540.000
250.087; -105.475; -834.000; -768.000
250.229;  -53.600; -362.000; -480.000
250.371;  -75.200; -494.000; -439.000
250.514;  -59.475; -310.000; -244.000
250.656;   -3.900;   69.000;  102.000
250.798; -115.500; -849.000; -800.000
250.940;  -56.275; -322.000; -322.000
251.083;  -41.525; -335.000; -111.000
251.225;   54.850;  338.000;  310.000
251.367;  -41.950; -274.000; -373.000
251.509;  -16.750; -265.000; -210.000
251.651;  -99.425; -731.000; -671.000
251.794;   52.500;  538.000;  632.000
251.936; -109.500; -821.000; -747.000
252.078;  -62.100; -540.000; -461.000
252.220;  -66.375; -645.000; -477.000
252.362;   89.700;  344.000;  462.000
252.504;  -71.675; -677.000; -584.000
252.646; -114.850; -875.000; -722.000
252.788;   -9.875;   14.000; -128.000
252.931;  -39.250; -257.000; -253.000
253.073;  -50.575; -376.000; -317.000
253.215;   -5.425;  141.000;  122.000
253.357;  -25.750;   82.000; -153.000
253.499;  -51.725; -374.000; -234.000
253.641;  -89.150; -749.000; -594.000
253.783;  -88.525; -609.000; -527.000
253.925;  -93.300; -586.000; -591.000
254.067; -109.625; -744.000; -667.000
254.209;  -31.225; -391.000; -259.000
254.351; -139.275; -865.000; -883.000
254.493;  -73.275; -441.000; -417.000
254.635; -131.350; -936.000; -818.000
254.777;  -84.925; -752.000; -687.000
254.918;  -56.975; -512.000; -430.000
255.060;  -58.950; -551.000; -395.000
255.202;  -48.950; -473.000; -261.000
255.344;  -80.275; -658.000; -455.000
255.486;  -70.325; -471.000; -406.000
255.628; -102.375; -780.000; -781.000
255.770; -114.900; -676.000; -536.000
255.912;  -67.425; -559.000; -468.000
256.053;  -95.550; -730.000; -508.000
256.195;  153.275; 1008.000;  903.000
256.337; -100.925; -861.000; -595.000
256.479;   53.500;  532.000;  416.000
256.621;  -36.625; -394.000; -212.000
256.762; -109.475; -789.000; -742.000
256.904;   55.700;  485.000;  487.000
257.046;  -59.475; -381.000; -271.000
257.188;  -27.600; -351.000; -264.000
257.329;  -75.950; -525.000; -464.000
257.471; -112.650; -939.000; -807.000
257.613;  -72.000; -584.000; -498.000
257.755; -138.100;-1073.000; -982.000
257.896;   41.700;  286.000;  392.000
258.038;  -78.975; -403.000; -352.000
258.180;  -40.400; -354.000; -279.000
258.321;  -84.150; -581.000; -457.000
258.463;   -7.800;  -71.000;  133.000
258.605;  -90.500; -562.000; -570.000
258.746; -104.975; -886.000; -772.000
258.888; -155.600;-1026.000;-1020.000
259.029;   23.000;  121.000;   -8.000
259.171;  -87.850; -614.000; -550.000
259.313;   -3.425;  -49.000;  -47.000
259.454;  -66.975; -536.000; -414.000
259.596;  -63.250; -483.000; -390.000
259.737;  -66.125; -590.000; -474.000
259.879;   24.950;  217.000;  311.000
260.020;  103.775;  901.000;  636.000
260.162;  -37.750; -146.000; -253.000
260.303; -122.550; -768.000; -687.000
260.445;  -91.400; -609.000; -613.000
260.586;   26.650;  392.000;  157.000
260.728;  -50.300; -360.000; -248.000
260.869;  -93.625; -350.000; -343.000
261.011;   87.850;  706.000;  537.000
261.152;  -67.750; -479.000; -319.000
261.293;  -98.500; -576.000; -595.000
261.435;  -27.675; -219.000; -184.000
261.576;  -52.025; -455.000; -325.000
261.718;   51.975;  420.000;  470.000
261.859; -128.625; -940.000; -949.000
262.000; -123.925; -951.000;-1016.000
262.142;  -32.200;  -52.000;  -60.000
262.283; -113.300; -808.000; -691.000
262.424;  -92.125; -666.000; -625.000
262.566; -162.250;-1161.000; -983.000
262.707; -120.050; -840.000; -830.000
262.848; -115.825; -769.000; -726.000
262.990;  -47.325; -362.000; -345.000
263.131;   93.550;  650.000;  681.000
263.272;   -5.425;  -61.000;  -41.000
263.413;  -93.525; -589.000; -561.000
263.555;  -67.375; -669.000; -143.000
263.696;  -83.525; -550.000; -641.000
263.837;  -66.000; -449.000; -551.000
263.978;  -19.100;   -5.000;  -77.000
264.119;  -46.700; -283.000; -264.000
264.261; -115.575; -847.000; -630.000
264.402;    9.875;   33.000;   40.000
264.543;  -71.000; -509.000; -524.000
264.684;  -10.325;   61.000;  -50.000
264.825;  -75.000; -816.000; -538.000
264.966;  -10.100;  -84.000;  -67.000
265.107; -127.025; -646.000; -670.000
265.248; -136.525; -825.000; -812.000
265.390;  -12.500;  152.000;   -9.000
265.531;  -31.500; -238.000; -107.000
265.672;  -84.675; -557.000; -630.000
265.813;   74.750;  563.000;  439.000
265.954; -143.225; -959.000; -940.000
266.095;  -15.275; -372.000; -322.000
266.236;  -81.325; -686.000; -548.000
266.377;  -46.500; -243.000; -297.000
266.518;  -79.575; -619.000; -547.000
266.659;   29.275;  170.000;  268.000
266.800;   14.225;   83.000;   85.000
266.941;  -82.475; -487.000; -478.000
267.082;   28.650;  354.000;   99.000
267.223;  -62.925; -344.000; -273.000
267.364; -118.950; -892.000; -686.000
267.504;  -18.675;    3.000;  135.000
267.645;   11.025;  160.000;   67.000
267.786;  -32.300; -147.000;  -86.000
267.927;  -73.150; -473.000; -379.000
268.068;  -17.150; -186.000;  -61.000
268.209;  -41.475; -175.000; -413.000
268.350;  -51.825; -388.000; -532.000
268.490;  -79.675; -648.000; -521.000
268.631;   18.825;  127.000;  225.000
268.772; -108.675; -874.000; -647.000
268.913;  -60.750; -328.000; -476.000
269.054;   -7.950; -117.000;   12.000
269.194;  -49.600; -418.000; -402.000
269.335; -144.200;-1137.000;-1074.000
269.476;  -23.725;   33.000;  -35.000
269.617;  -42.975; -347.000; -392.000
269.757;  -96.300; -713.000; -646.000
269.898; -112.750; -856.000; -613.000
270.039;  -66.300; -415.000; -405.000
270.180; -148.550; -952.000; -816.000
270.320;  -29.700; -190.000; -250.000
