
Integration time [ms]: 100.000
Averaging Nr. [scans]: 40
Smoothing Nr. [pixels]: 0
Data measured with spectrometer [name]: 2101012U2
Wave   ;Sample   ;Dark     ;Reference
[nm]   ;[counts] ;[counts] ;[counts] 

197.733;   63.125;  516.000;  404.000
197.879;  -87.200; -610.000; -634.000
198.025;  -51.300; -475.000; -420.000
198.171;  -81.775; -602.000; -612.000
198.317;  -26.650; -401.000; -316.000
198.463;  -59.250; -655.000; -404.000
198.609;   26.825;  181.000; -137.000
198.755;  -83.800; -644.000; -410.000
198.901;  -70.000; -505.000; -424.000
199.047;  -48.375; -615.000; -488.000
199.193;  -42.400; -230.000; -468.000
199.339;  -38.650; -222.000; -369.000
199.485;   40.950;  330.000;  271.000
199.631;   11.975;  227.000;  310.000
199.777;  -52.550; -466.000; -398.000
199.923;  -53.200; -610.000; -424.000
200.069;  -11.650; -141.000;  -58.000
200.215;   44.500;  128.000;  453.000
200.361;   43.050;  243.000;  477.000
200.507;  -80.075; -600.000; -373.000
200.653;  -24.125; -371.000; -194.000
200.798;  -40.150; -215.000; -125.000
200.944;  -16.125; -146.000;  -41.000
201.090;   50.475;   61.000;  222.000
201.236;    9.525; -116.000; -158.000
201.382;  133.350;  874.000;  903.000
201.528;   -0.075;  -58.000;  -48.000
201.674;  -20.950; -386.000; -293.000
201.819;  -59.625; -540.000; -439.000
201.965;  -79.100; -699.000; -447.000
202.111;  -29.725; -273.000; -226.000
202.257;  -41.350; -250.000; -238.000
202.402;    6.925;   13.000;  -36.000
202.548;  -30.050; -169.000; -116.000
202.694;   83.250;  410.000; -183.000
202.840;  -67.125; -603.000; -531.000
202.985;  -71.825; -681.000; -639.000
203.131; -107.100; -832.000; -666.000
203.277;  -23.100; -199.000; -262.000
203.423;  -44.500; -434.000; -520.000
203.568;  -36.275; -462.000; -237.000
203.714;  -64.975; -535.000; -542.000
203.860;  -83.750; -682.000; -641.000
204.005;   20.650;  112.000;  167.000
204.151;   70.275;  561.000;  556.000
204.296;  -52.900; -354.000; -221.000
204.442;  -66.300; -600.000; -547.000
204.588;  -72.825; -592.000; -579.000
204.733;   26.175;  178.000;  168.000
204.879; -123.675;-1018.000; -822.000
205.025;   12.300;  -99.000;  126.000
205.170;  -11.425;  -17.000;   94.000
205.316;   73.650;  438.000;  661.000
205.461;  -74.525; -698.000; -554.000
205.607;   74.200;  609.000;  665.000
205.752;  -77.825; -626.000; -551.000
205.898;  -50.275; -501.000; -391.000
206.043;  -58.850; -578.000; -506.000
206.189;  -42.750; -243.000; -285.000
206.334;   71.300;  554.000;  606.000
206.480;   67.450;  409.000;  239.000
206.625;  -83.625; -529.000; -552.000
206.771;  -57.100; -451.000; -373.000
206.916;  -32.275; -210.000; -537.000
207.062;  -62.725; -545.000; -591.000
207.207;  -45.725; -546.000; -443.000
207.353;   46.875;  185.000;  460.000
207.498;   13.250;  196.000;   85.000
207.643;  -59.425; -501.000; -370.000
207.789; -123.300;-1069.000; -910.000
207.934;  -92.100; -665.000; -713.000
208.080;  -23.475; -154.000;   66.000
208.225;   -7.400;  -22.000;  -57.000
208.370;  -65.650; -727.000; -619.000
208.516;  -77.150; -741.000; -487.000
208.661;  -15.675; -127.000;  -69.000
208.806;  -21.000; -165.000; -171.000
208.952; -115.225;-1044.000; -731.000
209.097;   73.225;  378.000;  349.000
209.242;  -57.750; -307.000; -382.000
209.387;   58.750;  392.000;  350.000
209.533;  -55.175; -321.000; -350.000
209.678;   65.525;  472.000;  543.000
209.823;  -46.675; -408.000; -310.000
209.969;  -99.375; -860.000; -757.000
210.114; -103.825; -907.000; -719.000
210.259; -119.175; -939.000; -889.000
210.404;  -12.025; -171.000;  103.000
210.549;    5.225;  108.000;    3.000
210.695;  -21.025;   -3.000;  -95.000
210.840;   29.125;   94.000;   67.000
210.985;  -62.925; -484.000; -303.000
211.130;   57.175;  268.000;  406.000
211.275;   17.800;  207.000;  199.000
211.420;  -53.075; -300.000; -289.000
211.566;  -75.650; -536.000; -489.000
211.711;    8.750;  218.000;  157.000
211.856;  -53.025; -545.000; -519.000
212.001;   22.475;  151.000;   44.000
212.146;   25.825;  153.000;   49.000
212.291;  -17.625; -210.000; -186.000
212.436;  -31.600; -280.000;   -6.000
212.581;  -94.250; -685.000; -653.000
212.726;  -76.350; -487.000; -538.000
212.871;  -47.500; -552.000; -217.000
213.016; -142.175;-1172.000;-1029.000
213.161;   60.875;  406.000;  291.000
213.306;  -65.850; -435.000; -577.000
213.451; -100.975; -778.000; -689.000
213.596;  -35.450; -455.000; -347.000
213.741;  -67.025; -448.000; -538.000
213.886;  -68.650; -498.000; -517.000
214.031;  -23.975; -294.000; -124.000
214.176;  -51.250; -408.000; -341.000
214.321;  -23.225; -296.000; -157.000
214.466;  -22.875; -163.000;  -43.000
214.611;   -3.875;  -61.000;  -10.000
214.756; -107.575; -948.000; -858.000
214.901;  -32.325; -388.000; -226.000
215.046; -109.450; -797.000; -825.000
215.191;    3.900;  128.000;   35.000
215.336;  -17.025; -157.000;  -19.000
215.480;  -82.025; -684.000; -505.000
215.625;  -23.525; -175.000;  -19.000
215.770;  -88.050; -757.000; -662.000
215.915;  -12.425;   -5.000;  -97.000
216.060;    4.475; -113.000;  -21.000
216.205; -101.925; -731.000; -779.000
216.349;  -79.550; -470.000; -533.000
216.494; -126.600; -939.000; -867.000
216.639; -106.825; -823.000; -888.000
216.784;  -90.325; -577.000; -525.000
216.929;   37.050;  392.000;  281.000
217.073;   -8.925; -244.000;  -31.000
217.218;    1.550;   78.000;  -47.000
217.363;  -87.925; -656.000; -618.000
217.507;  -69.400; -623.000; -588.000
217.652; -111.200; -845.000; -874.000
217.797;  -88.000; -708.000; -659.000
217.942; -110.850; -856.000; -720.000
218.086;   58.375;  608.000;  539.000
218.231;  -20.975; -174.000;  -26.000
218.376;  -31.500; -337.000; -229.000
218.520;   -3.000;  -41.000;   96.000
218.665;  -34.700; -338.000; -204.000
218.810;  -54.525; -275.000; -233.000
218.954;   16.400;  201.000;   35.000
219.099; -105.250; -713.000; -963.000
219.243;  -61.725; -589.000; -554.000
219.388;  -29.425; -264.000; -136.000
219.532;   -3.200; -116.000; -116.000
219.677;  -85.325; -564.000; -521.000
219.822;    0.425;   33.000;   89.000
219.966;    2.225;   17.000;  -99.000
220.111;  -28.625; -328.000;  -40.000
220.255;  -88.900; -797.000; -750.000
220.400;  -25.100; -180.000; -146.000
220.544;  -71.175; -516.000; -450.000
220.689;  -42.600; -422.000; -451.000
220.833;  -35.150; -123.000;  -58.000
220.978;  -40.150; -393.000; -563.000
221.122;   24.850;  319.000;  307.000
221.267; -108.850; -906.000; -837.000
221.411;  -65.025; -478.000; -394.000
221.555;  -15.825; -104.000;  -23.000
221.700;  -43.075; -329.000; -222.000
221.844;   38.550;  255.000;  272.000
221.989;  -54.025; -328.000; -311.000
222.133;  -42.775; -289.000; -307.000
222.277;  -12.400;    5.000;   78.000
222.422;   16.925;  227.000;  113.000
222.566;  -49.625; -381.000; -214.000
222.711;  -58.475; -414.000; -479.000
222.855;  -80.000; -643.000; -586.000
222.999;  -87.575; -642.000; -717.000
223.144;  -16.125; -195.000; -194.000
223.288;   46.775;  423.000;  251.000
223.432;   15.175;  184.000;  230.000
223.576;   17.550;  152.000;  -21.000
223.721;   29.350;  364.000;  273.000
223.865;  -61.975; -472.000; -475.000
224.009;  253.550; 1673.000; 1631.000
224.153;  -80.600; -660.000; -671.000
224.298;  -53.900; -531.000; -489.000
224.442;  -15.625;  -74.000;  -33.000
224.586;   -8.475; -169.000; -106.000
224.730;  -84.150; -858.000; -670.000
224.875; -103.825; -739.000; -688.000
225.019;   16.750;  102.000;  188.000
225.163;   43.450;  208.000;  341.000
225.307;   15.225;   97.000;  -91.000
225.451;   52.500;  360.000;  481.000
225.595;   19.325;  264.000;  176.000
225.739;  -11.550; -170.000;  -94.000
225.884;    4.100;   86.000;    5.000
226.028;  -96.775; -760.000; -626.000
226.172;  -40.275; -260.000; -273.000
226.316; -119.300; -941.000; -902.000
226.460;  -71.150; -645.000; -493.000
226.604;  -40.000; -406.000; -400.000
226.748;  -99.700; -836.000; -733.000
226.892;  -38.875; -227.000; -181.000
227.036;  -66.125; -537.000; -447.000
227.180;  -54.350; -551.000; -375.000
227.324;  -53.625; -561.000; -580.000
227.468; -105.575; -819.000; -717.000
227.612;   12.950;  242.000;  -28.000
227.756; -108.575; -845.000; -698.000
227.900;   43.725;  342.000;  441.000
228.044;  -67.500; -509.000; -290.000
228.188;   47.400;  448.000;  568.000
228.332;  -95.400; -546.000; -472.000
228.476;  -13.675; -223.000; -149.000
228.620;  -34.700; -210.000; -150.000
228.764;   41.650;  431.000;  349.000
228.908;  -11.875; -155.000;   30.000
229.052;  -74.475; -615.000; -528.000
229.195;  -19.650; -172.000;   13.000
229.339;  -36.000; -235.000; -305.000
229.483;  -14.550;    5.000; -162.000
229.627;   -3.800; -156.000;  139.000
229.771;  -47.975; -218.000; -294.000
229.915;   16.025;  230.000;   79.000
230.059;  -85.775; -648.000; -663.000
230.202;  -27.950; -370.000; -317.000
230.346;   -2.750; -107.000;  107.000
230.490;  -53.875; -489.000; -521.000
230.634;  -99.900; -736.000; -553.000
230.777;   73.775;  478.000;  509.000
230.921;  -62.800; -450.000; -359.000
231.065;  -31.125; -246.000; -286.000
231.209;   17.300;  261.000;  265.000
231.352;   22.250;   54.000;   40.000
231.496;    6.025;  568.000;  188.000
231.640;  -82.500; -693.000; -621.000
231.783;   51.450;  546.000;  525.000
231.927;  -45.925; -294.000; -365.000
232.071; -114.950; -962.000; -736.000
232.214; -109.100; -980.000; -764.000
232.358;  -94.500; -683.000; -599.000
232.502;    3.450;  -19.000;    7.000
232.645; -126.475;-1090.000; -927.000
232.789;  -36.925; -257.000; -218.000
232.933;  -31.675; -407.000; -224.000
233.076; -133.100;-1038.000; -897.000
233.220; -106.875; -752.000; -777.000
233.363;  -78.950; -669.000; -477.000
233.507;   63.975;  371.000;  129.000
233.650;  -92.525; -764.000; -834.000
233.794;   37.750;  438.000;  461.000
233.938;  -59.400; -530.000; -362.000
234.081;  -25.425;  -93.000;   31.000
234.225;  -72.250; -631.000; -539.000
234.368; -115.075; -773.000; -723.000
234.512;  -40.425; -385.000; -299.000
234.655;  -81.050; -582.000; -555.000
234.798;  -65.675; -493.000; -466.000
234.942; -127.050; -884.000;-1002.000
235.085;  -75.675; -651.000; -443.000
235.229;  -66.150; -405.000; -410.000
235.372;  -54.725; -247.000; -191.000
235.516;  -54.925; -397.000; -321.000
235.659;   16.125;   92.000;  121.000
235.802;  -13.075;  -38.000;  -22.000
235.946;   35.450;  335.000;  215.000
236.089;   11.875;  126.000;  250.000
236.233;   51.400;  275.000;  298.000
236.376;  -46.600; -235.000; -378.000
236.519;  -42.200; -297.000; -319.000
236.663;  -19.375; -215.000; -117.000
236.806; -139.725;-1029.000; -999.000
236.949;   52.400;  543.000;  431.000
237.092;   44.000;  412.000;  391.000
237.236;  -87.650; -589.000; -502.000
237.379;   64.075;  352.000;  428.000
237.522; -110.625; -879.000; -768.000
237.666;  -14.225; -271.000;   18.000
237.809; -123.600; -851.000; -823.000
237.952;   22.525;  469.000;  271.000
238.095;  -66.775; -447.000; -442.000
238.238;   72.900;  688.000;  700.000
238.382;   -2.525;  166.000;  103.000
238.525;  -67.200; -598.000; -511.000
238.668; -136.550;-1060.000; -985.000
238.811;  -78.900; -638.000; -643.000
238.954;  -48.050; -483.000; -334.000
239.097;   79.900;  617.000;  664.000
239.241;   19.750;  394.000;  326.000
239.384;  -43.650; -254.000; -214.000
239.527;  -56.700; -424.000; -224.000
239.670; -131.500; -994.000;-1091.000
239.813; -112.375; -696.000; -658.000
239.956;   73.250;  579.000;  473.000
240.099; -108.650; -778.000; -725.000
240.242;   51.250;  428.000;  432.000
240.385;   42.925;  466.000;  450.000
240.528;  -65.400; -706.000; -473.000
240.671;   18.075;  189.000;  134.000
240.814;  -48.250; -441.000; -158.000
240.957;  -99.425; -767.000; -578.000
241.100;  -88.375; -779.000; -755.000
241.243; -132.650;-1234.000; -893.000
241.386;  -74.875; -508.000; -379.000
241.529;  -91.350; -735.000; -547.000
241.672;  -67.850; -566.000; -495.000
241.815; -109.100; -832.000; -808.000
241.958;  -33.400; -125.000; -182.000
242.101;  -64.800; -545.000; -390.000
242.244;  -46.625; -270.000; -325.000
242.387;  -42.050; -304.000; -246.000
242.530;   54.425;  470.000;  134.000
242.673;  -44.450; -381.000; -309.000
242.815; -122.525; -925.000; -899.000
242.958;  -67.675; -482.000; -381.000
243.101;   11.725;  132.000;  187.000
243.244;  -71.750; -564.000; -521.000
243.387;  -51.450; -313.000; -316.000
243.530;  -97.675; -657.000; -674.000
243.672;   -0.125;   43.000;  -92.000
243.815;  -65.075; -355.000; -283.000
243.958;    3.900;   98.000;  -26.000
244.101;   -1.475;   59.000;  -16.000
244.243;   -9.275;  -47.000;  101.000
244.386; -106.350; -761.000; -630.000
244.529;  -26.575; -132.000; -139.000
244.672; -152.825;-1154.000; -951.000
244.814;  -90.925; -621.000; -794.000
244.957;  -34.775; -380.000; -304.000
245.100;  -58.975; -489.000; -489.000
245.242;  -62.000; -387.000; -374.000
245.385;  -10.950;  -59.000;  -39.000
245.528; -105.500; -871.000; -705.000
245.670;   80.450;  612.000;  634.000
245.813;  -93.175; -599.000; -547.000
245.956;  -24.350; -324.000; -275.000
246.098;  -65.700; -508.000; -650.000
246.241;   -3.500;  194.000;   48.000
246.383;  -20.875; -119.000;  -73.000
246.526;  -63.800; -454.000; -525.000
246.669; -103.100; -889.000; -780.000
246.811;   18.550;  172.000;   -1.000
246.954;  -61.425; -512.000; -426.000
247.096;  -17.700;  -84.000;   -6.000
247.239;  -71.400; -482.000; -445.000
247.381;  -70.175; -647.000; -488.000
247.524;   77.200;  645.000;  679.000
247.666;  -16.675;   58.000;   11.000
247.809; -116.450; -887.000; -691.000
247.951;  -11.850;  -75.000;  138.000
248.094;   40.900;  432.000;  308.000
248.236; -161.475;-1262.000;-1238.000
248.378;   17.525; -356.000;  -81.000
248.521;  -15.900; -334.000; -337.000
248.663;  -43.725; -236.000; -267.000
248.806;  -29.925; -300.000; -266.000
248.948;  -91.925; -886.000; -763.000
249.090;  -43.925; -428.000; -398.000
249.233;  -48.500; -344.000; -381.000
249.375;  -65.200; -474.000; -451.000
249.518;  -29.275;  -83.000; -133.000
249.660;   -7.075; -103.000;    3.000
249.802; -172.700;-1303.000;-1189.000
249.945;  -79.300; -612.000; -540.000
250.087; -112.775; -834.000; -768.000
250.229;  -51.625; -362.000; -480.000
250.371;  -65.450; -494.000; -439.000
250.514;  -44.025; -310.000; -244.000
250.656;  -62.750;   69.000;  102.000
250.798; -119.250; -849.000; -800.000
250.940;  -67.525; -322.000; -322.000
251.083;  -25.725; -335.000; -111.000
251.225;   54.575;  338.000;  310.000
251.367;  -52.200; -274.000; -373.000
251.509;  -34.775; -265.000; -210.000
251.651;  -96.375; -731.000; -671.000
251.794;   38.800;  538.000;  632.000
251.936;  -92.925; -821.000; -747.000
252.078;  -77.775; -540.000; -461.000
252.220;  -93.225; -645.000; -477.000
252.362;   85.675;  344.000;  462.000
252.504;  -62.600; -677.000; -584.000
252.646;  -99.550; -875.000; -722.000
252.788;    0.700;   14.000; -128.000
252.931;  -36.200; -257.000; -253.000
253.073;  -41.950; -376.000; -317.000
253.215;  -11.100;  141.000;  122.000
253.357;  -17.800;   82.000; -153.000
253.499;  -56.950; -374.000; -234.000
253.641;  -82.675; -749.000; -594.000
253.783;  -76.625; -609.000; -527.000
253.925;  -83.425; -586.000; -591.000
254.067; -104.250; -744.000; -667.000
254.209;  -33.950; -391.000; -259.000
254.351; -118.725; -865.000; -883.000
254.493;  -55.500; -441.000; -417.000
254.635; -126.700; -936.000; -818.000
254.777;  -86.775; -752.000; -687.000
254.918;  -70.600; -512.000; -430.000
255.060;  -63.625; -551.000; -395.000
255.202;  -43.550; -473.000; -261.000
255.344;  -68.600; -658.000; -455.000
255.486;  -70.600; -471.000; -406.000
255.628;  -91.850; -780.000; -781.000
255.770;  -81.425; -676.000; -536.000
255.912;  -50.750; -559.000; -468.000
256.053;  -85.000; -730.000; -508.000
256.195;  157.325; 1008.000;  903.000
256.337;  -91.200; -861.000; -595.000
256.479;   66.475;  532.000;  416.000
256.621;  -43.200; -394.000; -212.000
256.762;  -97.600; -789.000; -742.000
256.904;   50.725;  485.000;  487.000
257.046;  -42.000; -381.000; -271.000
257.188;  -56.375; -351.000; -264.000
257.329;  -70.750; -525.000; -464.000
257.471; -104.350; -939.000; -807.000
257.613;  -60.775; -584.000; -498.000
257.755; -151.150;-1073.000; -982.000
257.896;   33.975;  286.000;  392.000
258.038;  -63.700; -403.000; -352.000
258.180;  -43.400; -354.000; -279.000
258.321;  -93.875; -581.000; -457.000
258.463;   -9.725;  -71.000;  133.000
258.605;  -78.925; -562.000; -570.000
258.746; -102.925; -886.000; -772.000
258.888; -153.675;-1026.000;-1020.000
259.029;    6.775;  121.000;   -8.000
259.171;  -82.800; -614.000; -550.000
259.313;  -20.325;  -49.000;  -47.000
259.454;  -68.350; -536.000; -414.000
259.596;  -60.200; -483.000; -390.000
259.737;  -76.275; -590.000; -474.000
259.879;   23.825;  217.000;  311.000
260.020;   93.200;  901.000;  636.000
260.162;  -17.375; -146.000; -253.000
260.303; -117.225; -768.000; -687.000
260.445;  -90.100; -609.000; -613.000
260.586;   28.700;  392.000;  157.000
260.728;  -42.525; -360.000; -248.000
260.869;  -69.150; -350.000; -343.000
261.011;   69.350;  706.000;  537.000
261.152;  -62.875; -479.000; -319.000
261.293;  -81.975; -576.000; -595.000
261.435;  -39.950; -219.000; -184.000
261.576;  -43.300; -455.000; -325.000
261.718;   46.775;  420.000;  470.000
261.859; -118.925; -940.000; -949.000
262.000; -127.150; -951.000;-1016.000
262.142;  -39.175;  -52.000;  -60.000
262.283; -121.525; -808.000; -691.000
262.424;  -92.325; -666.000; -625.000
262.566; -135.475;-1161.000; -983.000
262.707; -106.975; -840.000; -830.000
262.848; -129.750; -769.000; -726.000
262.990;  -47.800; -362.000; -345.000
263.131;   68.100;  650.000;  681.000
263.272;  -12.025;  -61.000;  -41.000
263.413; -100.500; -589.000; -561.000
263.555;  -72.675; -669.000; -143.000
263.696;  -71.575; -550.000; -641.000
263.837;  -68.225; -449.000; -551.000
263.978;  -12.400;   -5.000;  -77.000
264.119;  -47.375; -283.000; -264.000
264.261; -110.800; -847.000; -630.000
264.402;   -9.050;   33.000;   40.000
264.543;  -70.650; -509.000; -524.000
264.684;   -9.350;   61.000;  -50.000
264.825;  -73.350; -816.000; -538.000
264.966;  -15.200;  -84.000;  -67.000
265.107; -111.250; -646.000; -670.000
265.248; -110.425; -825.000; -812.000
265.390;  -17.550;  152.000;   -9.000
265.531;  -21.350; -238.000; -107.000
265.672;  -90.650; -557.000; -630.000
265.813;   48.975;  563.000;  439.000
265.954; -131.875; -959.000; -940.000
266.095;  -29.800; -372.000; -322.000
266.236;  -96.975; -686.000; -548.000
266.377;  -37.700; -243.000; -297.000
266.518;  -76.500; -619.000; -547.000
266.659;   16.050;  170.000;  268.000
266.800;   14.850;   83.000;   85.000
266.941;  -87.550; -487.000; -478.000
267.082;   10.025;  354.000;   99.000
267.223;  -59.275; -344.000; -273.000
267.364; -118.925; -892.000; -686.000
267.504;  -25.175;    3.000;  135.000
267.645;   -5.825;  160.000;   67.000
267.786;  -26.275; -147.000;  -86.000
267.927;  -61.200; -473.000; -379.000
268.068;  -26.375; -186.000;  -61.000
268.209;  -57.450; -175.000; -413.000
268.350;  -46.800; -388.000; -532.000
268.490;  -86.550; -648.000; -521.000
268.631;   30.125;  127.000;  225.000
268.772; -103.225; -874.000; -647.000
268.913;  -43.550; -328.000; -476.000
269.054;   -9.375; -117.000;   12.000
269.194;  -50.775; -418.000; -402.000
269.335; -168.600;-1137.000;-1074.000
269.476;  -24.450;   33.000;  -35.000
269.617;  -51.000; -347.000; -392.000
269.757;  -87.200; -713.000; -646.000
269.898;  -94.700; -856.000; -613.000
270.039;  -58.125; -415.000; -405.000
270.180; -134.275; -952.000; -816.000
270.320;  -15.750; -190.000; -250.000
