
Integration time [ms]: 200.000
Averaging Nr. [scans]: 10
Smoothing Nr. [pixels]: 0
Data measured with spectrometer [name]: 2101012U2
Wave   ;Sample   ;Dark     ;Reference
[nm]   ;[counts] ;[counts] ;[counts] 

197.733;  111.400;  516.000;  404.000
197.879; -173.500; -610.000; -634.000
198.025;  -96.200; -475.000; -420.000
198.171; -126.500; -602.000; -612.000
198.317;  -56.900; -401.000; -316.000
198.463; -103.700; -655.000; -404.000
198.609;   81.800;  181.000; -137.000
198.755; -166.400; -644.000; -410.000
198.901; -149.100; -505.000; -424.000
199.047; -131.900; -615.000; -488.000
199.193;  -85.900; -230.000; -468.000
199.339; -101.000; -222.000; -369.000
199.485;   98.700;  330.000;  271.000
199.631;   38.900;  227.000;  310.000
199.777; -123.400; -466.000; -398.000
199.923; -130.600; -610.000; -424.000
200.069;  -32.200; -141.000;  -58.000
200.215;  125.800;  128.000;  453.000
200.361;   88.300;  243.000;  477.000
200.507; -110.100; -600.000; -373.000
200.653;  -59.200; -371.000; -194.000
200.798;  -71.200; -215.000; -125.000
200.944;  -16.000; -146.000;  -41.000
201.090;   72.300;   61.000;  222.000
201.236;  -16.500; -116.000; -158.000
201.382;  266.500;  874.000;  903.000
201.528;   23.200;  -58.000;  -48.000
201.674; -112.500; -386.000; -293.000
201.819; -138.500; -540.000; -439.000
201.965; -171.500; -699.000; -447.000
202.111;  -62.200; -273.000; -226.000
202.257;  -80.900; -250.000; -238.000
202.402;    3.900;   13.000;  -36.000
202.548;  -37.100; -169.000; -116.000
202.694;  159.400;  410.000; -183.000
202.840; -174.200; -603.000; -531.000
202.985; -153.200; -681.000; -639.000
203.131; -218.900; -832.000; -666.000
203.277;  -31.500; -199.000; -262.000
203.423; -106.800; -434.000; -520.000
203.568;  -78.500; -462.000; -237.000
203.714; -147.500; -535.000; -542.000
203.860; -162.000; -682.000; -641.000
204.005;   44.100;  112.000;  167.000
204.151;  146.900;  561.000;  556.000
204.296;  -90.300; -354.000; -221.000
204.442; -159.300; -600.000; -547.000
204.588; -171.300; -592.000; -579.000
204.733;   58.500;  178.000;  168.000
204.879; -283.600;-1018.000; -822.000
205.025;   19.200;  -99.000;  126.000
205.170;   22.100;  -17.000;   94.000
205.316;  157.700;  438.000;  661.000
205.461; -140.600; -698.000; -554.000
205.607;  144.400;  609.000;  665.000
205.752; -150.500; -626.000; -551.000
205.898; -114.700; -501.000; -391.000
206.043; -127.300; -578.000; -506.000
206.189;  -64.500; -243.000; -285.000
206.334;  181.100;  554.000;  606.000
206.480;  175.900;  409.000;  239.000
206.625; -186.400; -529.000; -552.000
206.771; -114.800; -451.000; -373.000
206.916;  -80.800; -210.000; -537.000
207.062; -156.600; -545.000; -591.000
207.207; -148.600; -546.000; -443.000
207.353;  104.400;  185.000;  460.000
207.498;   50.100;  196.000;   85.000
207.643; -126.000; -501.000; -370.000
207.789; -261.800;-1069.000; -910.000
207.934; -206.800; -665.000; -713.000
208.080;  -66.300; -154.000;   66.000
208.225;    2.100;  -22.000;  -57.000
208.370; -169.400; -727.000; -619.000
208.516; -138.700; -741.000; -487.000
208.661;  -69.400; -127.000;  -69.000
208.806;  -30.100; -165.000; -171.000
208.952; -252.800;-1044.000; -731.000
209.097;  135.700;  378.000;  349.000
209.242;  -91.900; -307.000; -382.000
209.387;   85.000;  392.000;  350.000
209.533; -131.400; -321.000; -350.000
209.678;  167.800;  472.000;  543.000
209.823; -110.500; -408.000; -310.000
209.969; -199.500; -860.000; -757.000
210.114; -218.900; -907.000; -719.000
210.259; -249.400; -939.000; -889.000
210.404;  -31.000; -171.000;  103.000
210.549;   26.800;  108.000;    3.000
210.695;  -28.900;   -3.000;  -95.000
210.840;   78.600;   94.000;   67.000
210.985; -122.400; -484.000; -303.000
211.130;  154.500;  268.000;  406.000
211.275;   19.300;  207.000;  199.000
211.420;  -97.300; -300.000; -289.000
211.566; -139.800; -536.000; -489.000
211.711;   51.600;  218.000;  157.000
211.856; -141.700; -545.000; -519.000
212.001;    1.300;  151.000;   44.000
212.146;  -21.900;  153.000;   49.000
212.291;  -41.700; -210.000; -186.000
212.436;  -30.400; -280.000;   -6.000
212.581; -162.600; -685.000; -653.000
212.726; -149.900; -487.000; -538.000
212.871; -101.900; -552.000; -217.000
213.016; -309.700;-1172.000;-1029.000
213.161;  136.300;  406.000;  291.000
213.306; -151.300; -435.000; -577.000
213.451; -211.300; -778.000; -689.000
213.596;  -80.300; -455.000; -347.000
213.741; -108.700; -448.000; -538.000
213.886; -164.500; -498.000; -517.000
214.031;  -35.400; -294.000; -124.000
214.176;  -87.000; -408.000; -341.000
214.321;  -27.400; -296.000; -157.000
214.466;  -59.700; -163.000;  -43.000
214.611;  -12.300;  -61.000;  -10.000
214.756; -224.100; -948.000; -858.000
214.901;  -40.500; -388.000; -226.000
215.046; -235.000; -797.000; -825.000
215.191;   63.500;  128.000;   35.000
215.336;  -40.900; -157.000;  -19.000
215.480; -129.200; -684.000; -505.000
215.625;  -11.700; -175.000;  -19.000
215.770; -190.900; -757.000; -662.000
215.915;  -23.800;   -5.000;  -97.000
216.060;    5.100; -113.000;  -21.000
216.205; -200.900; -731.000; -779.000
216.349; -150.400; -470.000; -533.000
216.494; -258.600; -939.000; -867.000
216.639; -219.600; -823.000; -888.000
216.784; -172.200; -577.000; -525.000
216.929;   91.200;  392.000;  281.000
217.073;  -43.800; -244.000;  -31.000
217.218;   -4.300;   78.000;  -47.000
217.363; -184.100; -656.000; -618.000
217.507; -134.300; -623.000; -588.000
217.652; -246.300; -845.000; -874.000
217.797; -186.500; -708.000; -659.000
217.942; -227.900; -856.000; -720.000
218.086;  198.000;  608.000;  539.000
218.231;  -32.900; -174.000;  -26.000
218.376;  -77.000; -337.000; -229.000
218.520;   -9.000;  -41.000;   96.000
218.665;  -54.200; -338.000; -204.000
218.810; -103.000; -275.000; -233.000
218.954;   50.200;  201.000;   35.000
219.099; -222.600; -713.000; -963.000
219.243; -164.800; -589.000; -554.000
219.388;  -57.200; -264.000; -136.000
219.532;  -28.600; -116.000; -116.000
219.677; -201.900; -564.000; -521.000
219.822;  -17.300;   33.000;   89.000
219.966;    8.600;   17.000;  -99.000
220.111;  -57.800; -328.000;  -40.000
220.255; -208.800; -797.000; -750.000
220.400;  -40.700; -180.000; -146.000
220.544; -127.500; -516.000; -450.000
220.689; -135.300; -422.000; -451.000
220.833;  -11.000; -123.000;  -58.000
220.978; -102.600; -393.000; -563.000
221.122;   58.800;  319.000;  307.000
221.267; -243.100; -906.000; -837.000
221.411; -147.600; -478.000; -394.000
221.555;   11.100; -104.000;  -23.000
221.700;  -92.200; -329.000; -222.000
221.844;   73.700;  255.000;  272.000
221.989;  -89.600; -328.000; -311.000
222.133;  -61.200; -289.000; -307.000
222.277;   19.600;    5.000;   78.000
222.422;   51.200;  227.000;  113.000
222.566;  -50.800; -381.000; -214.000
222.711; -109.000; -414.000; -479.000
222.855; -116.900; -643.000; -586.000
222.999; -163.100; -642.000; -717.000
223.144;  -30.600; -195.000; -194.000
223.288;  150.500;  423.000;  251.000
223.432;   47.300;  184.000;  230.000
223.576;   43.500;  152.000;  -21.000
223.721;  114.100;  364.000;  273.000
223.865; -125.100; -472.000; -475.000
224.009;  500.500; 1673.000; 1631.000
224.153; -131.500; -660.000; -671.000
224.298; -141.300; -531.000; -489.000
224.442;  -38.700;  -74.000;  -33.000
224.586;   -7.200; -169.000; -106.000
224.730; -185.100; -858.000; -670.000
224.875; -234.100; -739.000; -688.000
225.019;   50.900;  102.000;  188.000
225.163;  118.100;  208.000;  341.000
225.307;   55.000;   97.000;  -91.000
225.451;   97.500;  360.000;  481.000
225.595;   93.000;  264.000;  176.000
225.739;  -21.000; -170.000;  -94.000
225.884;   27.200;   86.000;    5.000
226.028; -204.300; -760.000; -626.000
226.172;  -86.100; -260.000; -273.000
226.316; -247.800; -941.000; -902.000
226.460; -142.600; -645.000; -493.000
226.604; -110.000; -406.000; -400.000
226.748; -218.500; -836.000; -733.000
226.892;  -70.800; -227.000; -181.000
227.036;  -73.200; -537.000; -447.000
227.180;  -92.400; -551.000; -375.000
227.324; -135.400; -561.000; -580.000
227.468; -215.600; -819.000; -717.000
227.612;   25.800;  242.000;  -28.000
227.756; -223.700; -845.000; -698.000
227.900;  113.600;  342.000;  441.000
228.044; -122.400; -509.000; -290.000
228.188;  131.100;  448.000;  568.000
228.332; -175.600; -546.000; -472.000
228.476;  -49.700; -223.000; -149.000
228.620;  -61.400; -210.000; -150.000
228.764;  144.100;  431.000;  349.000
228.908;  -43.800; -155.000;   30.000
229.052; -101.700; -615.000; -528.000
229.195;  -12.300; -172.000;   13.000
229.339;  -44.100; -235.000; -305.000
229.483;  -50.200;    5.000; -162.000
229.627;   14.100; -156.000;  139.000
229.771;  -75.300; -218.000; -294.000
229.915;    1.100;  230.000;   79.000
230.059; -190.600; -648.000; -663.000
230.202;  -54.400; -370.000; -317.000
230.346;  -11.500; -107.000;  107.000
230.490; -127.200; -489.000; -521.000
230.634; -230.200; -736.000; -553.000
230.777;  191.400;  478.000;  509.000
230.921; -127.100; -450.000; -359.000
231.065; -104.000; -246.000; -286.000
231.209;   85.800;  261.000;  265.000
231.352;   79.800;   54.000;   40.000
231.496;   50.200;  568.000;  188.000
231.640; -190.700; -693.000; -621.000
231.783;  171.900;  546.000;  525.000
231.927;  -83.500; -294.000; -365.000
232.071; -250.900; -962.000; -736.000
232.214; -251.100; -980.000; -764.000
232.358; -215.400; -683.000; -599.000
232.502;   13.700;  -19.000;    7.000
232.645; -284.900;-1090.000; -927.000
232.789;  -51.200; -257.000; -218.000
232.933;  -86.800; -407.000; -224.000
233.076; -261.900;-1038.000; -897.000
233.220; -185.900; -752.000; -777.000
233.363; -166.500; -669.000; -477.000
233.507;  148.000;  371.000;  129.000
233.650; -203.800; -764.000; -834.000
233.794;  127.600;  438.000;  461.000
233.938; -101.100; -530.000; -362.000
234.081;  -14.100;  -93.000;   31.000
234.225; -144.800; -631.000; -539.000
234.368; -242.200; -773.000; -723.000
234.512;  -86.700; -385.000; -299.000
234.655; -177.000; -582.000; -555.000
234.798; -150.300; -493.000; -466.000
234.942; -247.300; -884.000;-1002.000
235.085; -154.300; -651.000; -443.000
235.229; -134.200; -405.000; -410.000
235.372; -106.000; -247.000; -191.000
235.516; -130.900; -397.000; -321.000
235.659;   60.600;   92.000;  121.000
235.802;    2.400;  -38.000;  -22.000
235.946;   52.400;  335.000;  215.000
236.089;   83.700;  126.000;  250.000
236.233;   90.800;  275.000;  298.000
236.376;  -86.100; -235.000; -378.000
236.519; -102.100; -297.000; -319.000
236.663;  -33.300; -215.000; -117.000
236.806; -251.100;-1029.000; -999.000
236.949;  133.100;  543.000;  431.000
237.092;   96.900;  412.000;  391.000
237.236; -167.500; -589.000; -502.000
237.379;  132.400;  352.000;  428.000
237.522; -222.900; -879.000; -768.000
237.666;  -26.400; -271.000;   18.000
237.809; -277.200; -851.000; -823.000
237.952;   73.100;  469.000;  271.000
238.095; -141.400; -447.000; -442.000
238.238;  199.900;  688.000;  700.000
238.382;   -6.700;  166.000;  103.000
238.525; -167.700; -598.000; -511.000
238.668; -281.600;-1060.000; -985.000
238.811; -161.200; -638.000; -643.000
238.954; -113.800; -483.000; -334.000
239.097;  189.700;  617.000;  664.000
239.241;   61.300;  394.000;  326.000
239.384;  -69.600; -254.000; -214.000
239.527;  -98.300; -424.000; -224.000
239.670; -295.800; -994.000;-1091.000
239.813; -211.900; -696.000; -658.000
239.956;  170.600;  579.000;  473.000
240.099; -225.400; -778.000; -725.000
240.242;  147.600;  428.000;  432.000
240.385;  101.000;  466.000;  450.000
240.528; -158.900; -706.000; -473.000
240.671;   73.600;  189.000;  134.000
240.814;  -98.900; -441.000; -158.000
240.957; -205.200; -767.000; -578.000
241.100; -149.600; -779.000; -755.000
241.243; -256.600;-1234.000; -893.000
241.386; -148.500; -508.000; -379.000
241.529; -193.600; -735.000; -547.000
241.672; -120.700; -566.000; -495.000
241.815; -219.900; -832.000; -808.000
241.958;  -48.900; -125.000; -182.000
242.101; -144.300; -545.000; -390.000
242.244;  -98.300; -270.000; -325.000
242.387;  -80.100; -304.000; -246.000
242.530;  135.800;  470.000;  134.000
242.673;  -89.200; -381.000; -309.000
242.815; -200.300; -925.000; -899.000
242.958; -120.100; -482.000; -381.000
243.101;   28.300;  132.000;  187.000
243.244; -133.000; -564.000; -521.000
243.387;  -80.700; -313.000; -316.000
243.530; -179.800; -657.000; -674.000
243.672;    4.500;   43.000;  -92.000
243.815;  -96.400; -355.000; -283.000
243.958;   12.100;   98.000;  -26.000
244.101;    8.500;   59.000;  -16.000
244.243;  -14.600;  -47.000;  101.000
244.386; -225.900; -761.000; -630.000
244.529;  -13.700; -132.000; -139.000
244.672; -335.000;-1154.000; -951.000
244.814; -183.500; -621.000; -794.000
244.957;  -74.200; -380.000; -304.000
245.100; -141.500; -489.000; -489.000
245.242; -116.400; -387.000; -374.000
245.385;    6.800;  -59.000;  -39.000
245.528; -247.200; -871.000; -705.000
245.670;  178.300;  612.000;  634.000
245.813; -179.700; -599.000; -547.000
245.956;  -48.800; -324.000; -275.000
246.098; -184.500; -508.000; -650.000
246.241;   13.700;  194.000;   48.000
246.383;  -11.500; -119.000;  -73.000
246.526; -139.200; -454.000; -525.000
246.669; -219.300; -889.000; -780.000
246.811;   62.700;  172.000;   -1.000
246.954; -137.700; -512.000; -426.000
247.096;  -39.100;  -84.000;   -6.000
247.239; -119.800; -482.000; -445.000
247.381; -133.800; -647.000; -488.000
247.524;  206.400;  645.000;  679.000
247.666;   23.200;   58.000;   11.000
247.809; -239.200; -887.000; -691.000
247.951;   16.800;  -75.000;  138.000
248.094;   79.300;  432.000;  308.000
248.236; -324.300;-1262.000;-1238.000
248.378;   26.300; -356.000;  -81.000
248.521;  -53.000; -334.000; -337.000
248.663;  -72.500; -236.000; -267.000
248.806;  -67.500; -300.000; -266.000
248.948; -181.100; -886.000; -763.000
249.090;  -82.200; -428.000; -398.000
249.233;  -81.600; -344.000; -381.000
249.375; -155.400; -474.000; -451.000
249.518;   -5.700;  -83.000; -133.000
249.660;    1.700; -103.000;    3.000
249.802; -347.800;-1303.000;-1189.000
249.945; -150.200; -612.000; -540.000
250.087; -230.900; -834.000; -768.000
250.229;  -84.200; -362.000; -480.000
250.371; -141.700; -494.000; -439.000
250.514;  -88.300; -310.000; -244.000
250.656; -115.700;   69.000;  102.000
250.798; -231.200; -849.000; -800.000
250.940; -104.800; -322.000; -322.000
251.083;  -27.600; -335.000; -111.000
251.225;  106.700;  338.000;  310.000
251.367;  -67.500; -274.000; -373.000
251.509;  -51.900; -265.000; -210.000
251.651; -178.700; -731.000; -671.000
251.794;  145.200;  538.000;  632.000
251.936; -211.600; -821.000; -747.000
252.078; -169.100; -540.000; -461.000
252.220; -128.700; -645.000; -477.000
252.362;  190.700;  344.000;  462.000
252.504; -125.300; -677.000; -584.000
252.646; -226.900; -875.000; -722.000
252.788;  -27.900;   14.000; -128.000
252.931;  -51.200; -257.000; -253.000
253.073;  -68.300; -376.000; -317.000
253.215;   49.600;  141.000;  122.000
253.357;  -21.000;   82.000; -153.000
253.499;  -46.700; -374.000; -234.000
253.641; -157.800; -749.000; -594.000
253.783; -180.100; -609.000; -527.000
253.925; -183.900; -586.000; -591.000
254.067; -220.900; -744.000; -667.000
254.209;  -45.900; -391.000; -259.000
254.351; -273.500; -865.000; -883.000
254.493; -121.100; -441.000; -417.000
254.635; -242.100; -936.000; -818.000
254.777; -170.000; -752.000; -687.000
254.918; -145.700; -512.000; -430.000
255.060; -121.900; -551.000; -395.000
255.202; -117.000; -473.000; -261.000
255.344; -135.500; -658.000; -455.000
255.486; -137.300; -471.000; -406.000
255.628; -191.200; -780.000; -781.000
255.770; -158.000; -676.000; -536.000
255.912; -108.800; -559.000; -468.000
256.053; -167.900; -730.000; -508.000
256.195;  324.600; 1008.000;  903.000
256.337; -194.500; -861.000; -595.000
256.479;  163.600;  532.000;  416.000
256.621;  -67.200; -394.000; -212.000
256.762; -187.200; -789.000; -742.000
256.904;  152.500;  485.000;  487.000
257.046;  -70.600; -381.000; -271.000
257.188;  -55.900; -351.000; -264.000
257.329; -146.400; -525.000; -464.000
257.471; -230.800; -939.000; -807.000
257.613; -127.600; -584.000; -498.000
257.755; -324.600;-1073.000; -982.000
257.896;   89.700;  286.000;  392.000
258.038; -128.200; -403.000; -352.000
258.180;  -74.000; -354.000; -279.000
258.321; -148.400; -581.000; -457.000
258.463;   16.200;  -71.000;  133.000
258.605; -165.000; -562.000; -570.000
258.746; -189.800; -886.000; -772.000
258.888; -277.100;-1026.000;-1020.000
259.029;   65.500;  121.000;   -8.000
259.171; -179.500; -614.000; -550.000
259.313;   15.200;  -49.000;  -47.000
259.454; -133.700; -536.000; -414.000
259.596;  -91.500; -483.000; -390.000
259.737; -149.600; -590.000; -474.000
259.879;   94.100;  217.000;  311.000
260.020;  198.900;  901.000;  636.000
260.162;  -60.400; -146.000; -253.000
260.303; -227.700; -768.000; -687.000
260.445; -182.900; -609.000; -613.000
260.586;   80.200;  392.000;  157.000
260.728;  -60.700; -360.000; -248.000
260.869; -111.800; -350.000; -343.000
261.011;  217.900;  706.000;  537.000
261.152; -104.600; -479.000; -319.000
261.293; -165.200; -576.000; -595.000
261.435;  -47.300; -219.000; -184.000
261.576; -128.200; -455.000; -325.000
261.718;  144.400;  420.000;  470.000
261.859; -215.000; -940.000; -949.000
262.000; -273.500; -951.000;-1016.000
262.142;  -20.900;  -52.000;  -60.000
262.283; -221.700; -808.000; -691.000
262.424; -176.500; -666.000; -625.000
262.566; -320.400;-1161.000; -983.000
262.707; -244.800; -840.000; -830.000
262.848; -245.600; -769.000; -726.000
262.990;  -50.800; -362.000; -345.000
263.131;  187.400;  650.000;  681.000
263.272;    1.000;  -61.000;  -41.000
263.413; -193.800; -589.000; -561.000
263.555;  -91.600; -669.000; -143.000
263.696; -138.400; -550.000; -641.000
263.837; -105.400; -449.000; -551.000
263.978;   23.500;   -5.000;  -77.000
264.119;  -51.100; -283.000; -264.000
264.261; -217.100; -847.000; -630.000
264.402;    8.000;   33.000;   40.000
264.543; -140.600; -509.000; -524.000
264.684;   -7.000;   61.000;  -50.000
264.825; -169.800; -816.000; -538.000
264.966;   29.900;  -84.000;  -67.000
265.107; -201.500; -646.000; -670.000
265.248; -217.100; -825.000; -812.000
265.390;   -1.700;  152.000;   -9.000
265.531;  -43.600; -238.000; -107.000
265.672; -159.900; -557.000; -630.000
265.813;  124.300;  563.000;  439.000
265.954; -306.700; -959.000; -940.000
266.095;    2.000; -372.000; -322.000
266.236; -169.800; -686.000; -548.000
266.377;  -65.200; -243.000; -297.000
266.518; -120.200; -619.000; -547.000
266.659;   74.600;  170.000;  268.000
266.800;   39.800;   83.000;   85.000
266.941; -117.600; -487.000; -478.000
267.082;   47.300;  354.000;   99.000
267.223;  -88.100; -344.000; -273.000
267.364; -234.900; -892.000; -686.000
267.504;  -25.100;    3.000;  135.000
267.645;    9.900;  160.000;   67.000
267.786;  -68.100; -147.000;  -86.000
267.927; -127.800; -473.000; -379.000
268.068;  -17.100; -186.000;  -61.000
268.209;  -97.300; -175.000; -413.000
268.350;  -97.500; -388.000; -532.000
268.490; -149.600; -648.000; -521.000
268.631;   83.500;  127.000;  225.000
268.772; -241.600; -874.000; -647.000
268.913;  -89.800; -328.000; -476.000
269.054;   16.100; -117.000;   12.000
269.194; -110.700; -418.000; -402.000
269.335; -315.300;-1137.000;-1074.000
269.476;  -24.100;   33.000;  -35.000
269.617;  -57.400; -347.000; -392.000
269.757; -152.600; -713.000; -646.000
269.898; -200.600; -856.000; -613.000
270.039; -117.200; -415.000; -405.000
270.180; -243.100; -952.000; -816.000
270.320;   -9.700; -190.000; -250.000
