
Integration time [ms]: 200.000
Averaging Nr. [scans]: 10
Smoothing Nr. [pixels]: 0
Data measured with spectrometer [name]: 2101012U2
Wave   ;Sample   ;Dark     ;Reference
[nm]   ;[counts] ;[counts] ;[counts] 

197.733;  141.900;  516.000;  404.000
197.879; -196.900; -610.000; -634.000
198.025;  -90.600; -475.000; -420.000
198.171; -145.400; -602.000; -612.000
198.317;  -36.100; -401.000; -316.000
198.463; -111.900; -655.000; -404.000
198.609;   57.600;  181.000; -137.000
198.755; -189.000; -644.000; -410.000
198.901; -133.100; -505.000; -424.000
199.047; -140.200; -615.000; -488.000
199.193;  -64.800; -230.000; -468.000
199.339;  -72.500; -222.000; -369.000
199.485;  111.000;  330.000;  271.000
199.631;   46.800;  227.000;  310.000
199.777; -110.700; -466.000; -398.000
199.923; -142.000; -610.000; -424.000
200.069;   16.500; -141.000;  -58.000
200.215;  104.500;  128.000;  453.000
200.361;   64.700;  243.000;  477.000
200.507; -142.700; -600.000; -373.000
200.653;  -38.000; -371.000; -194.000
200.798;  -78.500; -215.000; -125.000
200.944;   11.900; -146.000;  -41.000
201.090;   88.200;   61.000;  222.000
201.236;   -9.000; -116.000; -158.000
201.382;  284.000;  874.000;  903.000
201.528;   13.400;  -58.000;  -48.000
201.674;  -82.600; -386.000; -293.000
201.819; -104.400; -540.000; -439.000
201.965; -172.800; -699.000; -447.000
202.111;  -29.200; -273.000; -226.000
202.257;  -65.300; -250.000; -238.000
202.402;   39.400;   13.000;  -36.000
202.548;  -44.100; -169.000; -116.000
202.694;  214.000;  410.000; -183.000
202.840; -156.300; -603.000; -531.000
202.985; -128.000; -681.000; -639.000
203.131; -242.300; -832.000; -666.000
203.277;   -1.500; -199.000; -262.000
203.423; -105.300; -434.000; -520.000
203.568;  -57.900; -462.000; -237.000
203.714; -116.700; -535.000; -542.000
203.860; -148.500; -682.000; -641.000
204.005;   16.500;  112.000;  167.000
204.151;  195.400;  561.000;  556.000
204.296;  -89.100; -354.000; -221.000
204.442; -123.900; -600.000; -547.000
204.588; -170.000; -592.000; -579.000
204.733;   83.200;  178.000;  168.000
204.879; -266.500;-1018.000; -822.000
205.025;   35.400;  -99.000;  126.000
205.170;   -0.100;  -17.000;   94.000
205.316;  213.400;  438.000;  661.000
205.461; -162.400; -698.000; -554.000
205.607;  177.000;  609.000;  665.000
205.752; -168.400; -626.000; -551.000
205.898;  -79.100; -501.000; -391.000
206.043; -137.200; -578.000; -506.000
206.189;  -81.700; -243.000; -285.000
206.334;  185.200;  554.000;  606.000
206.480;  132.600;  409.000;  239.000
206.625; -170.800; -529.000; -552.000
206.771;  -72.200; -451.000; -373.000
206.916;  -84.100; -210.000; -537.000
207.062; -134.400; -545.000; -591.000
207.207; -122.300; -546.000; -443.000
207.353;  147.100;  185.000;  460.000
207.498;   38.700;  196.000;   85.000
207.643;  -70.800; -501.000; -370.000
207.789; -255.700;-1069.000; -910.000
207.934; -169.500; -665.000; -713.000
208.080;  -82.300; -154.000;   66.000
208.225;   11.000;  -22.000;  -57.000
208.370; -191.200; -727.000; -619.000
208.516; -117.300; -741.000; -487.000
208.661;  -54.500; -127.000;  -69.000
208.806;  -52.900; -165.000; -171.000
208.952; -245.300;-1044.000; -731.000
209.097;  145.300;  378.000;  349.000
209.242; -111.700; -307.000; -382.000
209.387;  117.900;  392.000;  350.000
209.533; -124.200; -321.000; -350.000
209.678;  202.400;  472.000;  543.000
209.823;  -99.600; -408.000; -310.000
209.969; -200.400; -860.000; -757.000
210.114; -217.200; -907.000; -719.000
210.259; -214.800; -939.000; -889.000
210.404;   -5.800; -171.000;  103.000
210.549;   79.400;  108.000;    3.000
210.695;  -22.600;   -3.000;  -95.000
210.840;   93.100;   94.000;   67.000
210.985; -139.100; -484.000; -303.000
211.130;  181.200;  268.000;  406.000
211.275;   48.000;  207.000;  199.000
211.420;  -85.100; -300.000; -289.000
211.566; -149.600; -536.000; -489.000
211.711;   78.400;  218.000;  157.000
211.856; -129.200; -545.000; -519.000
212.001;   37.300;  151.000;   44.000
212.146;   18.300;  153.000;   49.000
212.291;  -31.600; -210.000; -186.000
212.436;  -59.300; -280.000;   -6.000
212.581; -150.200; -685.000; -653.000
212.726; -175.000; -487.000; -538.000
212.871;  -58.900; -552.000; -217.000
213.016; -307.400;-1172.000;-1029.000
213.161;  157.800;  406.000;  291.000
213.306; -146.900; -435.000; -577.000
213.451; -197.000; -778.000; -689.000
213.596;  -81.300; -455.000; -347.000
213.741; -114.800; -448.000; -538.000
213.886; -163.500; -498.000; -517.000
214.031;  -26.500; -294.000; -124.000
214.176;  -88.600; -408.000; -341.000
214.321;  -40.800; -296.000; -157.000
214.466;  -39.600; -163.000;  -43.000
214.611;  -26.800;  -61.000;  -10.000
214.756; -254.900; -948.000; -858.000
214.901;   -1.400; -388.000; -226.000
215.046; -251.800; -797.000; -825.000
215.191;   55.700;  128.000;   35.000
215.336;  -35.000; -157.000;  -19.000
215.480; -116.600; -684.000; -505.000
215.625;   -7.100; -175.000;  -19.000
215.770; -145.300; -757.000; -662.000
215.915;    2.100;   -5.000;  -97.000
216.060;   15.200; -113.000;  -21.000
216.205; -217.700; -731.000; -779.000
216.349; -165.200; -470.000; -533.000
216.494; -292.900; -939.000; -867.000
216.639; -234.400; -823.000; -888.000
216.784; -199.600; -577.000; -525.000
216.929;  103.500;  392.000;  281.000
217.073;  -24.000; -244.000;  -31.000
217.218;   14.800;   78.000;  -47.000
217.363; -163.700; -656.000; -618.000
217.507; -149.700; -623.000; -588.000
217.652; -275.000; -845.000; -874.000
217.797; -171.200; -708.000; -659.000
217.942; -204.600; -856.000; -720.000
218.086;  193.400;  608.000;  539.000
218.231;  -29.300; -174.000;  -26.000
218.376;  -21.600; -337.000; -229.000
218.520;  -22.700;  -41.000;   96.000
218.665;  -14.000; -338.000; -204.000
218.810;  -86.700; -275.000; -233.000
218.954;   47.300;  201.000;   35.000
219.099; -254.200; -713.000; -963.000
219.243; -141.100; -589.000; -554.000
219.388;  -42.500; -264.000; -136.000
219.532;    4.500; -116.000; -116.000
219.677; -135.200; -564.000; -521.000
219.822;   34.700;   33.000;   89.000
219.966;  -17.700;   17.000;  -99.000
220.111;  -67.600; -328.000;  -40.000
220.255; -199.900; -797.000; -750.000
220.400;  -14.000; -180.000; -146.000
220.544; -144.500; -516.000; -450.000
220.689;  -98.700; -422.000; -451.000
220.833;  -33.700; -123.000;  -58.000
220.978;  -64.900; -393.000; -563.000
221.122;   63.800;  319.000;  307.000
221.267; -223.200; -906.000; -837.000
221.411; -142.600; -478.000; -394.000
221.555;  -15.800; -104.000;  -23.000
221.700; -110.800; -329.000; -222.000
221.844;   90.700;  255.000;  272.000
221.989;  -94.000; -328.000; -311.000
222.133;  -66.200; -289.000; -307.000
222.277;  -35.100;    5.000;   78.000
222.422;   54.200;  227.000;  113.000
222.566;  -76.500; -381.000; -214.000
222.711; -102.100; -414.000; -479.000
222.855; -174.200; -643.000; -586.000
222.999; -137.800; -642.000; -717.000
223.144;  -40.300; -195.000; -194.000
223.288;  146.000;  423.000;  251.000
223.432;    2.700;  184.000;  230.000
223.576;   67.700;  152.000;  -21.000
223.721;   67.400;  364.000;  273.000
223.865; -108.000; -472.000; -475.000
224.009;  447.800; 1673.000; 1631.000
224.153; -134.800; -660.000; -671.000
224.298; -157.600; -531.000; -489.000
224.442;  -18.300;  -74.000;  -33.000
224.586;    1.400; -169.000; -106.000
224.730; -199.800; -858.000; -670.000
224.875; -210.100; -739.000; -688.000
225.019;   54.900;  102.000;  188.000
225.163;  124.100;  208.000;  341.000
225.307;   19.400;   97.000;  -91.000
225.451;   82.700;  360.000;  481.000
225.595;  110.400;  264.000;  176.000
225.739;  -54.400; -170.000;  -94.000
225.884;   60.200;   86.000;    5.000
226.028; -195.900; -760.000; -626.000
226.172;  -45.500; -260.000; -273.000
226.316; -259.500; -941.000; -902.000
226.460; -110.800; -645.000; -493.000
226.604;  -85.600; -406.000; -400.000
226.748; -165.000; -836.000; -733.000
226.892;  -72.300; -227.000; -181.000
227.036;  -67.500; -537.000; -447.000
227.180; -113.200; -551.000; -375.000
227.324; -133.200; -561.000; -580.000
227.468; -220.300; -819.000; -717.000
227.612;   39.300;  242.000;  -28.000
227.756; -198.100; -845.000; -698.000
227.900;  129.400;  342.000;  441.000
228.044; -123.300; -509.000; -290.000
228.188;  153.300;  448.000;  568.000
228.332; -160.600; -546.000; -472.000
228.476;  -38.900; -223.000; -149.000
228.620;  -68.300; -210.000; -150.000
228.764;  171.300;  431.000;  349.000
228.908;  -28.100; -155.000;   30.000
229.052; -104.500; -615.000; -528.000
229.195;  -11.600; -172.000;   13.000
229.339;  -14.100; -235.000; -305.000
229.483;  -42.200;    5.000; -162.000
229.627;   24.300; -156.000;  139.000
229.771;  -96.200; -218.000; -294.000
229.915;   61.900;  230.000;   79.000
230.059; -196.600; -648.000; -663.000
230.202;  -60.300; -370.000; -317.000
230.346;  -50.500; -107.000;  107.000
230.490; -101.900; -489.000; -521.000
230.634; -221.700; -736.000; -553.000
230.777;  177.900;  478.000;  509.000
230.921;  -98.600; -450.000; -359.000
231.065;  -85.500; -246.000; -286.000
231.209;   61.300;  261.000;  265.000
231.352;   83.600;   54.000;   40.000
231.496;   40.500;  568.000;  188.000
231.640; -159.600; -693.000; -621.000
231.783;  140.500;  546.000;  525.000
231.927;  -66.500; -294.000; -365.000
232.071; -248.300; -962.000; -736.000
232.214; -191.200; -980.000; -764.000
232.358; -192.200; -683.000; -599.000
232.502;   25.600;  -19.000;    7.000
232.645; -302.400;-1090.000; -927.000
232.789;  -10.100; -257.000; -218.000
232.933;  -79.600; -407.000; -224.000
233.076; -221.700;-1038.000; -897.000
233.220; -219.000; -752.000; -777.000
233.363; -157.700; -669.000; -477.000
233.507;  110.700;  371.000;  129.000
233.650; -154.100; -764.000; -834.000
233.794;   78.500;  438.000;  461.000
233.938; -115.800; -530.000; -362.000
234.081;  -33.200;  -93.000;   31.000
234.225; -121.800; -631.000; -539.000
234.368; -256.500; -773.000; -723.000
234.512;  -59.200; -385.000; -299.000
234.655; -182.500; -582.000; -555.000
234.798; -107.500; -493.000; -466.000
234.942; -259.200; -884.000;-1002.000
235.085; -108.800; -651.000; -443.000
235.229; -145.000; -405.000; -410.000
235.372;  -81.300; -247.000; -191.000
235.516; -132.200; -397.000; -321.000
235.659;   70.100;   92.000;  121.000
235.802;   -4.900;  -38.000;  -22.000
235.946;   57.500;  335.000;  215.000
236.089;   33.900;  126.000;  250.000
236.233;  140.500;  275.000;  298.000
236.376;  -84.600; -235.000; -378.000
236.519;  -64.300; -297.000; -319.000
236.663;  -37.300; -215.000; -117.000
236.806; -257.900;-1029.000; -999.000
236.949;  136.900;  543.000;  431.000
237.092;  166.100;  412.000;  391.000
237.236; -161.600; -589.000; -502.000
237.379;  144.900;  352.000;  428.000
237.522; -239.800; -879.000; -768.000
237.666;  -21.200; -271.000;   18.000
237.809; -233.400; -851.000; -823.000
237.952;  104.600;  469.000;  271.000
238.095; -135.300; -447.000; -442.000
238.238;  186.700;  688.000;  700.000
238.382;    1.000;  166.000;  103.000
238.525; -108.700; -598.000; -511.000
238.668; -277.500;-1060.000; -985.000
238.811; -146.100; -638.000; -643.000
238.954; -115.300; -483.000; -334.000
239.097;  234.700;  617.000;  664.000
239.241;   64.700;  394.000;  326.000
239.384;  -15.600; -254.000; -214.000
239.527; -133.800; -424.000; -224.000
239.670; -273.400; -994.000;-1091.000
239.813; -225.100; -696.000; -658.000
239.956;  196.300;  579.000;  473.000
240.099; -246.500; -778.000; -725.000
240.242;  164.800;  428.000;  432.000
240.385;  120.200;  466.000;  450.000
240.528;  -85.800; -706.000; -473.000
240.671;   26.000;  189.000;  134.000
240.814;  -57.800; -441.000; -158.000
240.957; -196.000; -767.000; -578.000
241.100; -155.400; -779.000; -755.000
241.243; -300.200;-1234.000; -893.000
241.386;  -69.900; -508.000; -379.000
241.529; -183.300; -735.000; -547.000
241.672; -117.000; -566.000; -495.000
241.815; -238.300; -832.000; -808.000
241.958;  -18.900; -125.000; -182.000
242.101; -174.300; -545.000; -390.000
242.244;  -44.200; -270.000; -325.000
242.387;  -67.900; -304.000; -246.000
242.530;  178.700;  470.000;  134.000
242.673;  -75.000; -381.000; -309.000
242.815; -206.900; -925.000; -899.000
242.958; -124.800; -482.000; -381.000
243.101;    2.500;  132.000;  187.000
243.244; -165.200; -564.000; -521.000
243.387;  -75.100; -313.000; -316.000
243.530; -178.800; -657.000; -674.000
243.672;   51.300;   43.000;  -92.000
243.815; -113.700; -355.000; -283.000
243.958;   34.200;   98.000;  -26.000
244.101;  -15.500;   59.000;  -16.000
244.243;   -7.000;  -47.000;  101.000
244.386; -211.500; -761.000; -630.000
244.529;  -27.500; -132.000; -139.000
244.672; -308.400;-1154.000; -951.000
244.814; -198.800; -621.000; -794.000
244.957; -125.900; -380.000; -304.000
245.100; -142.600; -489.000; -489.000
245.242; -133.000; -387.000; -374.000
245.385;   26.300;  -59.000;  -39.000
245.528; -255.300; -871.000; -705.000
245.670;  235.200;  612.000;  634.000
245.813; -166.900; -599.000; -547.000
245.956;  -34.600; -324.000; -275.000
246.098; -180.600; -508.000; -650.000
246.241;   51.700;  194.000;   48.000
246.383;  -23.000; -119.000;  -73.000
246.526; -148.100; -454.000; -525.000
246.669; -246.800; -889.000; -780.000
246.811;   98.700;  172.000;   -1.000
246.954; -120.900; -512.000; -426.000
247.096;  -13.200;  -84.000;   -6.000
247.239; -148.900; -482.000; -445.000
247.381; -129.100; -647.000; -488.000
247.524;  197.400;  645.000;  679.000
247.666;    1.600;   58.000;   11.000
247.809; -250.700; -887.000; -691.000
247.951;   33.500;  -75.000;  138.000
248.094;   86.500;  432.000;  308.000
248.236; -330.600;-1262.000;-1238.000
248.378;   31.900; -356.000;  -81.000
248.521;  -15.600; -334.000; -337.000
248.663;  -69.000; -236.000; -267.000
248.806;  -23.800; -300.000; -266.000
248.948; -174.500; -886.000; -763.000
249.090; -101.100; -428.000; -398.000
249.233; -110.700; -344.000; -381.000
249.375; -103.400; -474.000; -451.000
249.518;  -39.900;  -83.000; -133.000
249.660;   24.300; -103.000;    3.000
249.802; -341.200;-1303.000;-1189.000
249.945; -104.500; -612.000; -540.000
250.087; -235.300; -834.000; -768.000
250.229;  -52.200; -362.000; -480.000
250.371; -172.100; -494.000; -439.000
250.514;  -85.600; -310.000; -244.000
250.656;   -9.100;   69.000;  102.000
250.798; -213.300; -849.000; -800.000
250.940; -109.100; -322.000; -322.000
251.083;  -37.900; -335.000; -111.000
251.225;  132.200;  338.000;  310.000
251.367;  -32.500; -274.000; -373.000
251.509;  -53.900; -265.000; -210.000
251.651; -188.500; -731.000; -671.000
251.794;  116.300;  538.000;  632.000
251.936; -198.300; -821.000; -747.000
252.078; -155.200; -540.000; -461.000
252.220;  -89.900; -645.000; -477.000
252.362;  156.600;  344.000;  462.000
252.504;  -93.900; -677.000; -584.000
252.646; -210.900; -875.000; -722.000
252.788;   -1.000;   14.000; -128.000
252.931;  -65.700; -257.000; -253.000
253.073;  -32.800; -376.000; -317.000
253.215;    8.100;  141.000;  122.000
253.357;    8.800;   82.000; -153.000
253.499;  -88.300; -374.000; -234.000
253.641; -157.100; -749.000; -594.000
253.783; -199.400; -609.000; -527.000
253.925; -145.000; -586.000; -591.000
254.067; -223.800; -744.000; -667.000
254.209;  -45.400; -391.000; -259.000
254.351; -267.800; -865.000; -883.000
254.493;  -87.600; -441.000; -417.000
254.635; -207.100; -936.000; -818.000
254.777; -189.300; -752.000; -687.000
254.918; -161.100; -512.000; -430.000
255.060;  -72.800; -551.000; -395.000
255.202; -118.000; -473.000; -261.000
255.344; -135.400; -658.000; -455.000
255.486; -165.000; -471.000; -406.000
255.628; -212.100; -780.000; -781.000
255.770; -177.900; -676.000; -536.000
255.912; -127.200; -559.000; -468.000
256.053; -194.900; -730.000; -508.000
256.195;  363.300; 1008.000;  903.000
256.337; -215.600; -861.000; -595.000
256.479;  166.300;  532.000;  416.000
256.621; -132.800; -394.000; -212.000
256.762; -179.600; -789.000; -742.000
256.904;  123.300;  485.000;  487.000
257.046;  -23.700; -381.000; -271.000
257.188;  -92.400; -351.000; -264.000
257.329; -112.400; -525.000; -464.000
257.471; -211.700; -939.000; -807.000
257.613;  -98.200; -584.000; -498.000
257.755; -284.800;-1073.000; -982.000
257.896;  114.700;  286.000;  392.000
258.038; -132.200; -403.000; -352.000
258.180;  -59.700; -354.000; -279.000
258.321; -187.800; -581.000; -457.000
258.463;   35.100;  -71.000;  133.000
258.605; -171.700; -562.000; -570.000
258.746; -185.900; -886.000; -772.000
258.888; -277.600;-1026.000;-1020.000
259.029;   76.600;  121.000;   -8.000
259.171; -166.100; -614.000; -550.000
259.313;   30.800;  -49.000;  -47.000
259.454; -138.700; -536.000; -414.000
259.596;  -73.000; -483.000; -390.000
259.737; -141.800; -590.000; -474.000
259.879;  105.600;  217.000;  311.000
260.020;  210.300;  901.000;  636.000
260.162;  -12.900; -146.000; -253.000
260.303; -233.500; -768.000; -687.000
260.445; -136.500; -609.000; -613.000
260.586;   68.700;  392.000;  157.000
260.728;  -51.400; -360.000; -248.000
260.869; -149.100; -350.000; -343.000
261.011;  233.600;  706.000;  537.000
261.152; -120.300; -479.000; -319.000
261.293; -115.300; -576.000; -595.000
261.435;  -37.200; -219.000; -184.000
261.576;  -29.700; -455.000; -325.000
261.718;  128.300;  420.000;  470.000
261.859; -210.100; -940.000; -949.000
262.000; -246.800; -951.000;-1016.000
262.142;    8.300;  -52.000;  -60.000
262.283; -182.100; -808.000; -691.000
262.424; -179.200; -666.000; -625.000
262.566; -299.600;-1161.000; -983.000
262.707; -216.900; -840.000; -830.000
262.848; -223.500; -769.000; -726.000
262.990;  -77.900; -362.000; -345.000
263.131;  170.400;  650.000;  681.000
263.272;   19.100;  -61.000;  -41.000
263.413; -178.600; -589.000; -561.000
263.555;  -98.800; -669.000; -143.000
263.696; -153.900; -550.000; -641.000
263.837; -100.700; -449.000; -551.000
263.978;   14.100;   -5.000;  -77.000
264.119;  -66.900; -283.000; -264.000
264.261; -240.200; -847.000; -630.000
264.402;   47.000;   33.000;   40.000
264.543; -134.100; -509.000; -524.000
264.684;   30.000;   61.000;  -50.000
264.825; -129.100; -816.000; -538.000
264.966;   25.100;  -84.000;  -67.000
265.107; -220.000; -646.000; -670.000
265.248; -225.600; -825.000; -812.000
265.390;   14.300;  152.000;   -9.000
265.531;    8.600; -238.000; -107.000
265.672; -157.200; -557.000; -630.000
265.813;  166.400;  563.000;  439.000
265.954; -316.000; -959.000; -940.000
266.095;   -0.300; -372.000; -322.000
266.236; -198.600; -686.000; -548.000
266.377;  -43.400; -243.000; -297.000
266.518; -123.400; -619.000; -547.000
266.659;  115.000;  170.000;  268.000
266.800;   13.300;   83.000;   85.000
266.941;  -98.100; -487.000; -478.000
267.082;   31.800;  354.000;   99.000
267.223;  -69.400; -344.000; -273.000
267.364; -213.400; -892.000; -686.000
267.504;    8.100;    3.000;  135.000
267.645;   42.300;  160.000;   67.000
267.786;  -45.200; -147.000;  -86.000
267.927; -142.400; -473.000; -379.000
268.068;   12.000; -186.000;  -61.000
268.209;  -75.100; -175.000; -413.000
268.350; -102.900; -388.000; -532.000
268.490; -160.500; -648.000; -521.000
268.631;   99.200;  127.000;  225.000
268.772; -213.300; -874.000; -647.000
268.913;  -44.900; -328.000; -476.000
269.054;  -17.300; -117.000;   12.000
269.194;  -30.100; -418.000; -402.000
269.335; -314.100;-1137.000;-1074.000
269.476;   45.000;   33.000;  -35.000
269.617;  -85.000; -347.000; -392.000
269.757; -136.200; -713.000; -646.000
269.898; -198.400; -856.000; -613.000
270.039; -107.300; -415.000; -405.000
270.180; -271.500; -952.000; -816.000
270.320;   -2.500; -190.000; -250.000
