
Integration time [ms]: 100.000
Averaging Nr. [scans]: 40
Smoothing Nr. [pixels]: 0
Data measured with spectrometer [name]: 2101012U2
Wave   ;Sample   ;Dark     ;Reference
[nm]   ;[counts] ;[counts] ;[counts] 

197.733;   46.225;  516.000;  404.000
197.879;  -76.225; -610.000; -634.000
198.025;  -62.850; -475.000; -420.000
198.171;  -82.175; -602.000; -612.000
198.317;  -37.475; -401.000; -316.000
198.463;  -61.550; -655.000; -404.000
198.609;   40.125;  181.000; -137.000
198.755;  -80.050; -644.000; -410.000
198.901;  -76.600; -505.000; -424.000
199.047;  -64.750; -615.000; -488.000
199.193;  -44.775; -230.000; -468.000
199.339;  -38.250; -222.000; -369.000
199.485;   34.850;  330.000;  271.000
199.631;    8.950;  227.000;  310.000
199.777;  -38.300; -466.000; -398.000
199.923;  -75.250; -610.000; -424.000
200.069;   -2.075; -141.000;  -58.000
200.215;   51.425;  128.000;  453.000
200.361;   41.425;  243.000;  477.000
200.507;  -70.125; -600.000; -373.000
200.653;  -34.450; -371.000; -194.000
200.798;  -32.125; -215.000; -125.000
200.944;   -2.050; -146.000;  -41.000
201.090;   36.000;   61.000;  222.000
201.236;   -9.900; -116.000; -158.000
201.382;  124.125;  874.000;  903.000
201.528;    5.400;  -58.000;  -48.000
201.674;  -60.825; -386.000; -293.000
201.819;  -67.500; -540.000; -439.000
201.965;  -93.400; -699.000; -447.000
202.111;  -17.950; -273.000; -226.000
202.257;  -40.250; -250.000; -238.000
202.402;   10.575;   13.000;  -36.000
202.548;  -26.175; -169.000; -116.000
202.694;   80.800;  410.000; -183.000
202.840;  -77.550; -603.000; -531.000
202.985;  -71.150; -681.000; -639.000
203.131; -100.575; -832.000; -666.000
203.277;  -20.775; -199.000; -262.000
203.423;  -49.600; -434.000; -520.000
203.568;  -33.675; -462.000; -237.000
203.714;  -67.875; -535.000; -542.000
203.860;  -97.225; -682.000; -641.000
204.005;   15.275;  112.000;  167.000
204.151;   87.925;  561.000;  556.000
204.296;  -48.025; -354.000; -221.000
204.442;  -75.625; -600.000; -547.000
204.588;  -63.800; -592.000; -579.000
204.733;   11.150;  178.000;  168.000
204.879; -139.450;-1018.000; -822.000
205.025;   12.225;  -99.000;  126.000
205.170;   14.025;  -17.000;   94.000
205.316;   82.825;  438.000;  661.000
205.461;  -95.525; -698.000; -554.000
205.607;   96.975;  609.000;  665.000
205.752;  -73.650; -626.000; -551.000
205.898;  -57.050; -501.000; -391.000
206.043;  -74.650; -578.000; -506.000
206.189;  -45.825; -243.000; -285.000
206.334;   77.550;  554.000;  606.000
206.480;   76.625;  409.000;  239.000
206.625;  -79.725; -529.000; -552.000
206.771;  -46.800; -451.000; -373.000
206.916;  -31.325; -210.000; -537.000
207.062;  -69.575; -545.000; -591.000
207.207;  -56.925; -546.000; -443.000
207.353;   40.950;  185.000;  460.000
207.498;   11.275;  196.000;   85.000
207.643;  -55.500; -501.000; -370.000
207.789; -124.400;-1069.000; -910.000
207.934; -105.175; -665.000; -713.000
208.080;  -30.900; -154.000;   66.000
208.225;    1.425;  -22.000;  -57.000
208.370;  -72.800; -727.000; -619.000
208.516;  -83.375; -741.000; -487.000
208.661;  -23.475; -127.000;  -69.000
208.806;  -29.550; -165.000; -171.000
208.952; -135.850;-1044.000; -731.000
209.097;   66.725;  378.000;  349.000
209.242;  -39.900; -307.000; -382.000
209.387;   60.325;  392.000;  350.000
209.533;  -56.575; -321.000; -350.000
209.678;   70.875;  472.000;  543.000
209.823;  -50.475; -408.000; -310.000
209.969; -116.150; -860.000; -757.000
210.114; -114.425; -907.000; -719.000
210.259; -130.900; -939.000; -889.000
210.404;   -8.750; -171.000;  103.000
210.549;    7.625;  108.000;    3.000
210.695;  -25.975;   -3.000;  -95.000
210.840;   25.625;   94.000;   67.000
210.985;  -66.175; -484.000; -303.000
211.130;   82.300;  268.000;  406.000
211.275;    4.525;  207.000;  199.000
211.420;  -63.675; -300.000; -289.000
211.566;  -72.450; -536.000; -489.000
211.711;   15.725;  218.000;  157.000
211.856;  -66.775; -545.000; -519.000
212.001;   19.300;  151.000;   44.000
212.146;   26.450;  153.000;   49.000
212.291;  -22.850; -210.000; -186.000
212.436;  -29.425; -280.000;   -6.000
212.581;  -82.075; -685.000; -653.000
212.726;  -73.075; -487.000; -538.000
212.871;  -58.525; -552.000; -217.000
213.016; -157.525;-1172.000;-1029.000
213.161;   48.075;  406.000;  291.000
213.306;  -90.925; -435.000; -577.000
213.451;  -95.525; -778.000; -689.000
213.596;  -54.325; -455.000; -347.000
213.741;  -60.850; -448.000; -538.000
213.886;  -80.150; -498.000; -517.000
214.031;  -34.675; -294.000; -124.000
214.176;  -54.025; -408.000; -341.000
214.321;  -25.325; -296.000; -157.000
214.466;  -17.275; -163.000;  -43.000
214.611;   -1.200;  -61.000;  -10.000
214.756; -133.975; -948.000; -858.000
214.901;  -22.850; -388.000; -226.000
215.046; -119.025; -797.000; -825.000
215.191;   11.950;  128.000;   35.000
215.336;  -21.650; -157.000;  -19.000
215.480;  -82.925; -684.000; -505.000
215.625;  -14.650; -175.000;  -19.000
215.770;  -76.425; -757.000; -662.000
215.915;  -12.800;   -5.000;  -97.000
216.060;    2.500; -113.000;  -21.000
216.205; -130.375; -731.000; -779.000
216.349;  -60.500; -470.000; -533.000
216.494; -134.075; -939.000; -867.000
216.639; -117.450; -823.000; -888.000
216.784;  -85.675; -577.000; -525.000
216.929;   51.325;  392.000;  281.000
217.073;  -15.800; -244.000;  -31.000
217.218;   18.450;   78.000;  -47.000
217.363;  -92.400; -656.000; -618.000
217.507;  -78.775; -623.000; -588.000
217.652; -124.275; -845.000; -874.000
217.797;  -94.725; -708.000; -659.000
217.942; -111.675; -856.000; -720.000
218.086;   62.925;  608.000;  539.000
218.231;  -20.550; -174.000;  -26.000
218.376;  -39.375; -337.000; -229.000
218.520;    1.875;  -41.000;   96.000
218.665;  -27.400; -338.000; -204.000
218.810;  -43.125; -275.000; -233.000
218.954;   18.325;  201.000;   35.000
219.099; -121.100; -713.000; -963.000
219.243;  -77.150; -589.000; -554.000
219.388;  -33.725; -264.000; -136.000
219.532;   -4.000; -116.000; -116.000
219.677;  -85.050; -564.000; -521.000
219.822;    6.325;   33.000;   89.000
219.966;   -2.800;   17.000;  -99.000
220.111;  -30.850; -328.000;  -40.000
220.255; -102.725; -797.000; -750.000
220.400;  -18.025; -180.000; -146.000
220.544;  -79.200; -516.000; -450.000
220.689;  -53.475; -422.000; -451.000
220.833;   -7.400; -123.000;  -58.000
220.978;  -50.475; -393.000; -563.000
221.122;   19.375;  319.000;  307.000
221.267; -111.250; -906.000; -837.000
221.411;  -74.100; -478.000; -394.000
221.555;  -10.600; -104.000;  -23.000
221.700;  -51.075; -329.000; -222.000
221.844;   29.250;  255.000;  272.000
221.989;  -46.425; -328.000; -311.000
222.133;  -55.750; -289.000; -307.000
222.277;   -0.875;    5.000;   78.000
222.422;   27.275;  227.000;  113.000
222.566;  -46.225; -381.000; -214.000
222.711;  -66.100; -414.000; -479.000
222.855;  -80.375; -643.000; -586.000
222.999;  -93.300; -642.000; -717.000
223.144;  -33.175; -195.000; -194.000
223.288;   47.550;  423.000;  251.000
223.432;   23.375;  184.000;  230.000
223.576;   18.325;  152.000;  -21.000
223.721;   41.875;  364.000;  273.000
223.865;  -65.250; -472.000; -475.000
224.009;  280.150; 1673.000; 1631.000
224.153;  -74.425; -660.000; -671.000
224.298;  -88.525; -531.000; -489.000
224.442;  -14.900;  -74.000;  -33.000
224.586;  -14.500; -169.000; -106.000
224.730; -102.675; -858.000; -670.000
224.875; -114.900; -739.000; -688.000
225.019;    9.950;  102.000;  188.000
225.163;   51.300;  208.000;  341.000
225.307;   15.225;   97.000;  -91.000
225.451;   50.500;  360.000;  481.000
225.595;   31.600;  264.000;  176.000
225.739;  -15.600; -170.000;  -94.000
225.884;    6.425;   86.000;    5.000
226.028; -112.475; -760.000; -626.000
226.172;  -30.775; -260.000; -273.000
226.316; -121.350; -941.000; -902.000
226.460;  -85.725; -645.000; -493.000
226.604;  -63.500; -406.000; -400.000
226.748; -102.100; -836.000; -733.000
226.892;  -44.100; -227.000; -181.000
227.036;  -46.525; -537.000; -447.000
227.180;  -67.350; -551.000; -375.000
227.324;  -62.600; -561.000; -580.000
227.468; -111.350; -819.000; -717.000
227.612;   13.850;  242.000;  -28.000
227.756; -100.550; -845.000; -698.000
227.900;   44.500;  342.000;  441.000
228.044;  -46.225; -509.000; -290.000
228.188;   59.100;  448.000;  568.000
228.332;  -91.750; -546.000; -472.000
228.476;  -40.075; -223.000; -149.000
228.620;  -35.325; -210.000; -150.000
228.764;   68.500;  431.000;  349.000
228.908;  -22.700; -155.000;   30.000
229.052;  -64.525; -615.000; -528.000
229.195;  -16.300; -172.000;   13.000
229.339;  -28.825; -235.000; -305.000
229.483;  -26.450;    5.000; -162.000
229.627;   -7.550; -156.000;  139.000
229.771;  -47.800; -218.000; -294.000
229.915;   26.050;  230.000;   79.000
230.059; -100.950; -648.000; -663.000
230.202;  -35.725; -370.000; -317.000
230.346;  -16.325; -107.000;  107.000
230.490;  -71.450; -489.000; -521.000
230.634; -116.750; -736.000; -553.000
230.777;   88.600;  478.000;  509.000
230.921;  -49.975; -450.000; -359.000
231.065;  -45.150; -246.000; -286.000
231.209;   18.100;  261.000;  265.000
231.352;   22.300;   54.000;   40.000
231.496;   24.725;  568.000;  188.000
231.640;  -81.800; -693.000; -621.000
231.783;   67.350;  546.000;  525.000
231.927;  -65.650; -294.000; -365.000
232.071; -126.300; -962.000; -736.000
232.214; -108.600; -980.000; -764.000
232.358; -101.025; -683.000; -599.000
232.502;   -0.925;  -19.000;    7.000
232.645; -138.850;-1090.000; -927.000
232.789;  -20.750; -257.000; -218.000
232.933;  -46.800; -407.000; -224.000
233.076; -133.300;-1038.000; -897.000
233.220; -112.375; -752.000; -777.000
233.363;  -80.225; -669.000; -477.000
233.507;   45.450;  371.000;  129.000
233.650; -100.800; -764.000; -834.000
233.794;   57.500;  438.000;  461.000
233.938;  -76.775; -530.000; -362.000
234.081;  -16.600;  -93.000;   31.000
234.225;  -81.600; -631.000; -539.000
234.368; -113.475; -773.000; -723.000
234.512;  -51.325; -385.000; -299.000
234.655; -105.350; -582.000; -555.000
234.798;  -69.350; -493.000; -466.000
234.942; -124.825; -884.000;-1002.000
235.085;  -79.775; -651.000; -443.000
235.229;  -79.175; -405.000; -410.000
235.372;  -38.350; -247.000; -191.000
235.516;  -59.100; -397.000; -321.000
235.659;   22.425;   92.000;  121.000
235.802;   -8.225;  -38.000;  -22.000
235.946;   27.975;  335.000;  215.000
236.089;   33.300;  126.000;  250.000
236.233;   53.000;  275.000;  298.000
236.376;  -49.950; -235.000; -378.000
236.519;  -45.025; -297.000; -319.000
236.663;  -36.775; -215.000; -117.000
236.806; -147.025;-1029.000; -999.000
236.949;   54.850;  543.000;  431.000
237.092;   56.125;  412.000;  391.000
237.236;  -89.975; -589.000; -502.000
237.379;   47.650;  352.000;  428.000
237.522; -121.175; -879.000; -768.000
237.666;  -18.825; -271.000;   18.000
237.809; -126.675; -851.000; -823.000
237.952;   38.025;  469.000;  271.000
238.095;  -81.975; -447.000; -442.000
238.238;   87.925;  688.000;  700.000
238.382;   -5.850;  166.000;  103.000
238.525;  -81.525; -598.000; -511.000
238.668; -148.650;-1060.000; -985.000
238.811;  -88.150; -638.000; -643.000
238.954;  -61.350; -483.000; -334.000
239.097;  100.725;  617.000;  664.000
239.241;   26.850;  394.000;  326.000
239.384;  -36.125; -254.000; -214.000
239.527;  -56.000; -424.000; -224.000
239.670; -154.125; -994.000;-1091.000
239.813; -122.050; -696.000; -658.000
239.956;   65.825;  579.000;  473.000
240.099; -117.300; -778.000; -725.000
240.242;   62.100;  428.000;  432.000
240.385;   48.425;  466.000;  450.000
240.528;  -79.500; -706.000; -473.000
240.671;   14.975;  189.000;  134.000
240.814;  -49.150; -441.000; -158.000
240.957; -109.350; -767.000; -578.000
241.100;  -93.550; -779.000; -755.000
241.243; -155.675;-1234.000; -893.000
241.386;  -81.850; -508.000; -379.000
241.529; -102.900; -735.000; -547.000
241.672;  -70.150; -566.000; -495.000
241.815; -130.600; -832.000; -808.000
241.958;  -29.300; -125.000; -182.000
242.101;  -78.950; -545.000; -390.000
242.244;  -41.075; -270.000; -325.000
242.387;  -44.325; -304.000; -246.000
242.530;   46.525;  470.000;  134.000
242.673;  -59.200; -381.000; -309.000
242.815; -128.175; -925.000; -899.000
242.958;  -64.750; -482.000; -381.000
243.101;    0.875;  132.000;  187.000
243.244;  -79.050; -564.000; -521.000
243.387;  -48.600; -313.000; -316.000
243.530;  -98.525; -657.000; -674.000
243.672;    3.900;   43.000;  -92.000
243.815;  -52.850; -355.000; -283.000
243.958;    7.725;   98.000;  -26.000
244.101;   -1.325;   59.000;  -16.000
244.243;  -15.325;  -47.000;  101.000
244.386; -116.350; -761.000; -630.000
244.529;  -30.000; -132.000; -139.000
244.672; -157.025;-1154.000; -951.000
244.814; -115.275; -621.000; -794.000
244.957;  -48.475; -380.000; -304.000
245.100;  -78.050; -489.000; -489.000
245.242;  -69.675; -387.000; -374.000
245.385;    8.025;  -59.000;  -39.000
245.528; -131.850; -871.000; -705.000
245.670;   69.925;  612.000;  634.000
245.813;  -89.700; -599.000; -547.000
245.956;  -29.700; -324.000; -275.000
246.098;  -79.900; -508.000; -650.000
246.241;    5.425;  194.000;   48.000
246.383;  -20.500; -119.000;  -73.000
246.526;  -76.200; -454.000; -525.000
246.669; -133.275; -889.000; -780.000
246.811;    2.200;  172.000;   -1.000
246.954;  -59.225; -512.000; -426.000
247.096;  -21.800;  -84.000;   -6.000
247.239;  -76.200; -482.000; -445.000
247.381;  -88.175; -647.000; -488.000
247.524;   88.500;  645.000;  679.000
247.666;   -9.475;   58.000;   11.000
247.809; -110.675; -887.000; -691.000
247.951;  -22.825;  -75.000;  138.000
248.094;   23.550;  432.000;  308.000
248.236; -174.025;-1262.000;-1238.000
248.378;  -60.125; -356.000;  -81.000
248.521;  -44.000; -334.000; -337.000
248.663;  -43.625; -236.000; -267.000
248.806;  -50.700; -300.000; -266.000
248.948; -145.750; -886.000; -763.000
249.090;  -74.750; -428.000; -398.000
249.233;  -79.850; -344.000; -381.000
249.375;  -80.275; -474.000; -451.000
249.518;  -22.325;  -83.000; -133.000
249.660;  -22.900; -103.000;    3.000
249.802; -197.275;-1303.000;-1189.000
249.945;  -97.000; -612.000; -540.000
250.087; -123.450; -834.000; -768.000
250.229;  -59.275; -362.000; -480.000
250.371;  -71.675; -494.000; -439.000
250.514;  -53.100; -310.000; -244.000
250.656;  -61.325;   69.000;  102.000
250.798; -123.375; -849.000; -800.000
250.940;  -75.725; -322.000; -322.000
251.083;  -32.125; -335.000; -111.000
251.225;   45.100;  338.000;  310.000
251.367;  -50.800; -274.000; -373.000
251.509;  -44.125; -265.000; -210.000
251.651;  -96.850; -731.000; -671.000
251.794;   73.775;  538.000;  632.000
251.936; -126.525; -821.000; -747.000
252.078;  -74.175; -540.000; -461.000
252.220;  -95.125; -645.000; -477.000
252.362;   26.125;  344.000;  462.000
252.504;  -87.075; -677.000; -584.000
252.646; -119.700; -875.000; -722.000
252.788;  -27.900;   14.000; -128.000
252.931;  -38.775; -257.000; -253.000
253.073;  -59.575; -376.000; -317.000
253.215;  -13.875;  141.000;  122.000
253.357;  -23.150;   82.000; -153.000
253.499;  -64.050; -374.000; -234.000
253.641;  -96.850; -749.000; -594.000
253.783;  -99.975; -609.000; -527.000
253.925;  -96.600; -586.000; -591.000
254.067; -116.850; -744.000; -667.000
254.209;  -42.050; -391.000; -259.000
254.351; -138.300; -865.000; -883.000
254.493;  -80.975; -441.000; -417.000
254.635; -141.525; -936.000; -818.000
254.777; -107.550; -752.000; -687.000
254.918;  -67.650; -512.000; -430.000
255.060;  -62.800; -551.000; -395.000
255.202;  -72.350; -473.000; -261.000
255.344;  -93.450; -658.000; -455.000
255.486;  -92.725; -471.000; -406.000
255.628; -114.550; -780.000; -781.000
255.770;  -79.900; -676.000; -536.000
255.912;  -81.125; -559.000; -468.000
256.053;  -90.375; -730.000; -508.000
256.195;  159.725; 1008.000;  903.000
256.337; -102.800; -861.000; -595.000
256.479;   48.975;  532.000;  416.000
256.621;  -64.750; -394.000; -212.000
256.762; -112.575; -789.000; -742.000
256.904;   51.250;  485.000;  487.000
257.046;  -51.600; -381.000; -271.000
257.188;  -47.825; -351.000; -264.000
257.329;  -76.275; -525.000; -464.000
257.471; -126.725; -939.000; -807.000
257.613;  -79.125; -584.000; -498.000
257.755; -160.750;-1073.000; -982.000
257.896;   21.950;  286.000;  392.000
258.038;  -82.850; -403.000; -352.000
258.180;  -50.825; -354.000; -279.000
258.321;  -87.425; -581.000; -457.000
258.463;  -18.600;  -71.000;  133.000
258.605; -116.800; -562.000; -570.000
258.746; -122.600; -886.000; -772.000
258.888; -160.425;-1026.000;-1020.000
259.029;   16.000;  121.000;   -8.000
259.171;  -94.500; -614.000; -550.000
259.313;  -12.175;  -49.000;  -47.000
259.454; -100.600; -536.000; -414.000
259.596;  -74.550; -483.000; -390.000
259.737;  -71.550; -590.000; -474.000
259.879;   23.525;  217.000;  311.000
260.020;   82.000;  901.000;  636.000
260.162;  -47.500; -146.000; -253.000
260.303; -128.825; -768.000; -687.000
260.445;  -90.725; -609.000; -613.000
260.586;   25.000;  392.000;  157.000
260.728;  -61.400; -360.000; -248.000
260.869; -129.000; -350.000; -343.000
261.011;   80.725;  706.000;  537.000
261.152;  -72.700; -479.000; -319.000
261.293;  -79.775; -576.000; -595.000
261.435;  -32.350; -219.000; -184.000
261.576;  -65.950; -455.000; -325.000
261.718;   52.400;  420.000;  470.000
261.859; -134.775; -940.000; -949.000
262.000; -135.450; -951.000;-1016.000
262.142;  -38.600;  -52.000;  -60.000
262.283; -130.375; -808.000; -691.000
262.424; -106.250; -666.000; -625.000
262.566; -164.575;-1161.000; -983.000
262.707; -121.150; -840.000; -830.000
262.848; -133.900; -769.000; -726.000
262.990;  -43.925; -362.000; -345.000
263.131;   72.625;  650.000;  681.000
263.272;  -30.400;  -61.000;  -41.000
263.413;  -99.675; -589.000; -561.000
263.555;  -73.025; -669.000; -143.000
263.696;  -97.425; -550.000; -641.000
263.837;  -76.375; -449.000; -551.000
263.978;  -25.750;   -5.000;  -77.000
264.119;  -51.325; -283.000; -264.000
264.261; -135.175; -847.000; -630.000
264.402;   -3.075;   33.000;   40.000
264.543;  -86.350; -509.000; -524.000
264.684;  -20.600;   61.000;  -50.000
264.825;  -85.900; -816.000; -538.000
264.966;  -14.925;  -84.000;  -67.000
265.107; -131.325; -646.000; -670.000
265.248; -132.100; -825.000; -812.000
265.390;  -29.875;  152.000;   -9.000
265.531;  -25.100; -238.000; -107.000
265.672;  -92.600; -557.000; -630.000
265.813;   50.925;  563.000;  439.000
265.954; -147.025; -959.000; -940.000
266.095;  -25.250; -372.000; -322.000
266.236; -108.700; -686.000; -548.000
266.377;  -45.850; -243.000; -297.000
266.518;  -75.125; -619.000; -547.000
266.659;   26.300;  170.000;  268.000
266.800;   -4.250;   83.000;   85.000
266.941;  -82.600; -487.000; -478.000
267.082;    9.850;  354.000;   99.000
267.223;  -56.400; -344.000; -273.000
267.364; -136.975; -892.000; -686.000
267.504;  -35.825;    3.000;  135.000
267.645;  -13.150;  160.000;   67.000
267.786;  -34.525; -147.000;  -86.000
267.927;  -80.000; -473.000; -379.000
268.068;  -33.625; -186.000;  -61.000
268.209;  -55.650; -175.000; -413.000
268.350;  -78.050; -388.000; -532.000
268.490;  -99.225; -648.000; -521.000
268.631;   18.075;  127.000;  225.000
268.772; -117.925; -874.000; -647.000
268.913;  -55.850; -328.000; -476.000
269.054;  -28.900; -117.000;   12.000
269.194;  -62.400; -418.000; -402.000
269.335; -159.400;-1137.000;-1074.000
269.476;  -33.925;   33.000;  -35.000
269.617;  -58.050; -347.000; -392.000
269.757; -103.900; -713.000; -646.000
269.898; -119.475; -856.000; -613.000
270.039;  -81.325; -415.000; -405.000
270.180; -163.325; -952.000; -816.000
270.320;  -32.800; -190.000; -250.000
