
Integration time [ms]: 100.000
Averaging Nr. [scans]: 40
Smoothing Nr. [pixels]: 0
Data measured with spectrometer [name]: 2101012U2
Wave   ;Sample   ;Dark     ;Reference
[nm]   ;[counts] ;[counts] ;[counts] 

197.733;   50.050;  516.000;  404.000
197.879;  -87.600; -610.000; -634.000
198.025;  -63.100; -475.000; -420.000
198.171;  -72.250; -602.000; -612.000
198.317;  -25.975; -401.000; -316.000
198.463;  -58.150; -655.000; -404.000
198.609;   20.100;  181.000; -137.000
198.755;  -72.875; -644.000; -410.000
198.901;  -69.600; -505.000; -424.000
199.047;  -56.000; -615.000; -488.000
199.193;  -29.525; -230.000; -468.000
199.339;  -40.900; -222.000; -369.000
199.485;   43.825;  330.000;  271.000
199.631;   19.925;  227.000;  310.000
199.777;  -34.375; -466.000; -398.000
199.923;  -66.625; -610.000; -424.000
200.069;    5.400; -141.000;  -58.000
200.215;   64.700;  128.000;  453.000
200.361;   42.400;  243.000;  477.000
200.507;  -65.125; -600.000; -373.000
200.653;  -13.350; -371.000; -194.000
200.798;  -28.575; -215.000; -125.000
200.944;   -1.100; -146.000;  -41.000
201.090;   31.700;   61.000;  222.000
201.236;   14.750; -116.000; -158.000
201.382;  118.400;  874.000;  903.000
201.528;    0.925;  -58.000;  -48.000
201.674;  -31.900; -386.000; -293.000
201.819;  -55.950; -540.000; -439.000
201.965;  -77.050; -699.000; -447.000
202.111;  -15.550; -273.000; -226.000
202.257;  -34.000; -250.000; -238.000
202.402;   16.850;   13.000;  -36.000
202.548;  -31.250; -169.000; -116.000
202.694;   83.575;  410.000; -183.000
202.840;  -80.950; -603.000; -531.000
202.985;  -71.525; -681.000; -639.000
203.131; -108.150; -832.000; -666.000
203.277;  -24.775; -199.000; -262.000
203.423;  -55.425; -434.000; -520.000
203.568;  -38.675; -462.000; -237.000
203.714;  -54.325; -535.000; -542.000
203.860;  -91.150; -682.000; -641.000
204.005;   18.225;  112.000;  167.000
204.151;   87.575;  561.000;  556.000
204.296;  -27.800; -354.000; -221.000
204.442;  -63.925; -600.000; -547.000
204.588;  -70.250; -592.000; -579.000
204.733;   17.875;  178.000;  168.000
204.879; -125.250;-1018.000; -822.000
205.025;    7.550;  -99.000;  126.000
205.170;   -0.175;  -17.000;   94.000
205.316;   79.400;  438.000;  661.000
205.461;  -94.000; -698.000; -554.000
205.607;   95.150;  609.000;  665.000
205.752;  -80.300; -626.000; -551.000
205.898;  -45.525; -501.000; -391.000
206.043;  -47.400; -578.000; -506.000
206.189;  -42.075; -243.000; -285.000
206.334;   80.575;  554.000;  606.000
206.480;   89.025;  409.000;  239.000
206.625;  -81.600; -529.000; -552.000
206.771;  -52.375; -451.000; -373.000
206.916;  -22.500; -210.000; -537.000
207.062;  -71.475; -545.000; -591.000
207.207;  -55.250; -546.000; -443.000
207.353;   54.900;  185.000;  460.000
207.498;    6.700;  196.000;   85.000
207.643;  -44.600; -501.000; -370.000
207.789; -131.325;-1069.000; -910.000
207.934;  -85.725; -665.000; -713.000
208.080;   -5.675; -154.000;   66.000
208.225;  -13.500;  -22.000;  -57.000
208.370;  -85.000; -727.000; -619.000
208.516;  -68.650; -741.000; -487.000
208.661;  -23.800; -127.000;  -69.000
208.806;  -10.025; -165.000; -171.000
208.952; -119.800;-1044.000; -731.000
209.097;   77.075;  378.000;  349.000
209.242;  -50.750; -307.000; -382.000
209.387;   64.275;  392.000;  350.000
209.533;  -45.250; -321.000; -350.000
209.678;   72.475;  472.000;  543.000
209.823;  -52.825; -408.000; -310.000
209.969;  -97.000; -860.000; -757.000
210.114;  -96.125; -907.000; -719.000
210.259; -111.475; -939.000; -889.000
210.404;  -10.225; -171.000;  103.000
210.549;   25.900;  108.000;    3.000
210.695;  -19.625;   -3.000;  -95.000
210.840;   24.250;   94.000;   67.000
210.985;  -53.225; -484.000; -303.000
211.130;   68.225;  268.000;  406.000
211.275;   10.325;  207.000;  199.000
211.420;  -45.525; -300.000; -289.000
211.566;  -71.625; -536.000; -489.000
211.711;   26.275;  218.000;  157.000
211.856;  -60.250; -545.000; -519.000
212.001;   23.125;  151.000;   44.000
212.146;   42.950;  153.000;   49.000
212.291;  -24.775; -210.000; -186.000
212.436;  -26.725; -280.000;   -6.000
212.581;  -79.125; -685.000; -653.000
212.726;  -72.225; -487.000; -538.000
212.871;  -51.625; -552.000; -217.000
213.016; -137.550;-1172.000;-1029.000
213.161;   66.550;  406.000;  291.000
213.306;  -75.000; -435.000; -577.000
213.451;  -81.250; -778.000; -689.000
213.596;  -41.775; -455.000; -347.000
213.741;  -48.825; -448.000; -538.000
213.886;  -70.300; -498.000; -517.000
214.031;  -34.775; -294.000; -124.000
214.176;  -62.275; -408.000; -341.000
214.321;  -27.150; -296.000; -157.000
214.466;  -28.225; -163.000;  -43.000
214.611;  -13.100;  -61.000;  -10.000
214.756; -116.800; -948.000; -858.000
214.901;  -32.450; -388.000; -226.000
215.046; -124.125; -797.000; -825.000
215.191;   16.250;  128.000;   35.000
215.336;  -11.075; -157.000;  -19.000
215.480;  -53.925; -684.000; -505.000
215.625;  -19.050; -175.000;  -19.000
215.770;  -67.975; -757.000; -662.000
215.915;   -6.850;   -5.000;  -97.000
216.060;   -9.450; -113.000;  -21.000
216.205; -110.875; -731.000; -779.000
216.349;  -73.725; -470.000; -533.000
216.494; -121.575; -939.000; -867.000
216.639; -114.000; -823.000; -888.000
216.784;  -74.025; -577.000; -525.000
216.929;   57.475;  392.000;  281.000
217.073;  -14.850; -244.000;  -31.000
217.218;   15.350;   78.000;  -47.000
217.363;  -77.750; -656.000; -618.000
217.507;  -77.700; -623.000; -588.000
217.652; -122.100; -845.000; -874.000
217.797;  -79.175; -708.000; -659.000
217.942; -101.950; -856.000; -720.000
218.086;   57.575;  608.000;  539.000
218.231;  -28.075; -174.000;  -26.000
218.376;  -42.800; -337.000; -229.000
218.520;   -0.775;  -41.000;   96.000
218.665;  -25.050; -338.000; -204.000
218.810;  -50.650; -275.000; -233.000
218.954;   13.450;  201.000;   35.000
219.099; -102.725; -713.000; -963.000
219.243;  -67.850; -589.000; -554.000
219.388;  -24.550; -264.000; -136.000
219.532;  -19.225; -116.000; -116.000
219.677;  -71.525; -564.000; -521.000
219.822;    8.825;   33.000;   89.000
219.966;   21.600;   17.000;  -99.000
220.111;  -32.800; -328.000;  -40.000
220.255;  -95.650; -797.000; -750.000
220.400;   -8.625; -180.000; -146.000
220.544;  -75.325; -516.000; -450.000
220.689;  -55.850; -422.000; -451.000
220.833;  -20.200; -123.000;  -58.000
220.978;  -39.675; -393.000; -563.000
221.122;   22.800;  319.000;  307.000
221.267; -106.425; -906.000; -837.000
221.411;  -65.000; -478.000; -394.000
221.555;  -15.800; -104.000;  -23.000
221.700;  -57.750; -329.000; -222.000
221.844;   46.475;  255.000;  272.000
221.989;  -40.400; -328.000; -311.000
222.133;  -40.225; -289.000; -307.000
222.277;   -0.725;    5.000;   78.000
222.422;   11.050;  227.000;  113.000
222.566;  -26.050; -381.000; -214.000
222.711;  -59.750; -414.000; -479.000
222.855;  -90.575; -643.000; -586.000
222.999;  -84.025; -642.000; -717.000
223.144;  -24.275; -195.000; -194.000
223.288;   55.775;  423.000;  251.000
223.432;   19.875;  184.000;  230.000
223.576;   18.275;  152.000;  -21.000
223.721;   54.325;  364.000;  273.000
223.865;  -53.400; -472.000; -475.000
224.009;  261.825; 1673.000; 1631.000
224.153;  -73.950; -660.000; -671.000
224.298;  -71.950; -531.000; -489.000
224.442;  -13.775;  -74.000;  -33.000
224.586;  -12.025; -169.000; -106.000
224.730;  -96.150; -858.000; -670.000
224.875; -100.725; -739.000; -688.000
225.019;    4.825;  102.000;  188.000
225.163;   48.900;  208.000;  341.000
225.307;   21.675;   97.000;  -91.000
225.451;   49.800;  360.000;  481.000
225.595;   26.100;  264.000;  176.000
225.739;  -17.175; -170.000;  -94.000
225.884;    1.375;   86.000;    5.000
226.028; -100.075; -760.000; -626.000
226.172;  -41.825; -260.000; -273.000
226.316; -116.675; -941.000; -902.000
226.460;  -67.250; -645.000; -493.000
226.604;  -38.650; -406.000; -400.000
226.748; -105.200; -836.000; -733.000
226.892;  -25.250; -227.000; -181.000
227.036;  -43.925; -537.000; -447.000
227.180;  -60.300; -551.000; -375.000
227.324;  -67.525; -561.000; -580.000
227.468; -104.550; -819.000; -717.000
227.612;   10.400;  242.000;  -28.000
227.756; -102.875; -845.000; -698.000
227.900;   56.400;  342.000;  441.000
228.044;  -45.800; -509.000; -290.000
228.188;   54.900;  448.000;  568.000
228.332;  -86.000; -546.000; -472.000
228.476;  -14.900; -223.000; -149.000
228.620;  -25.525; -210.000; -150.000
228.764;   58.050;  431.000;  349.000
228.908;  -13.350; -155.000;   30.000
229.052;  -65.475; -615.000; -528.000
229.195;  -15.125; -172.000;   13.000
229.339;  -19.150; -235.000; -305.000
229.483;  -20.900;    5.000; -162.000
229.627;   -0.625; -156.000;  139.000
229.771;  -42.275; -218.000; -294.000
229.915;   12.075;  230.000;   79.000
230.059;  -72.750; -648.000; -663.000
230.202;  -50.225; -370.000; -317.000
230.346;  -11.150; -107.000;  107.000
230.490;  -59.275; -489.000; -521.000
230.634; -107.325; -736.000; -553.000
230.777;   75.450;  478.000;  509.000
230.921;  -66.200; -450.000; -359.000
231.065;  -40.800; -246.000; -286.000
231.209;   20.400;  261.000;  265.000
231.352;   25.575;   54.000;   40.000
231.496;    8.900;  568.000;  188.000
231.640;  -87.000; -693.000; -621.000
231.783;   73.775;  546.000;  525.000
231.927;  -42.200; -294.000; -365.000
232.071; -111.500; -962.000; -736.000
232.214; -104.650; -980.000; -764.000
232.358;  -90.275; -683.000; -599.000
232.502;   12.200;  -19.000;    7.000
232.645; -131.775;-1090.000; -927.000
232.789;  -18.300; -257.000; -218.000
232.933;  -49.075; -407.000; -224.000
233.076; -120.875;-1038.000; -897.000
233.220; -100.975; -752.000; -777.000
233.363;  -74.400; -669.000; -477.000
233.507;   48.425;  371.000;  129.000
233.650;  -94.475; -764.000; -834.000
233.794;   44.400;  438.000;  461.000
233.938;  -57.650; -530.000; -362.000
234.081;   -7.025;  -93.000;   31.000
234.225;  -64.975; -631.000; -539.000
234.368; -101.750; -773.000; -723.000
234.512;  -23.875; -385.000; -299.000
234.655;  -76.300; -582.000; -555.000
234.798;  -73.450; -493.000; -466.000
234.942; -129.550; -884.000;-1002.000
235.085;  -67.300; -651.000; -443.000
235.229;  -71.650; -405.000; -410.000
235.372;  -40.975; -247.000; -191.000
235.516;  -54.425; -397.000; -321.000
235.659;   21.300;   92.000;  121.000
235.802;    0.125;  -38.000;  -22.000
235.946;   32.725;  335.000;  215.000
236.089;   23.175;  126.000;  250.000
236.233;   63.100;  275.000;  298.000
236.376;  -57.875; -235.000; -378.000
236.519;  -40.275; -297.000; -319.000
236.663;  -34.750; -215.000; -117.000
236.806; -132.050;-1029.000; -999.000
236.949;   56.750;  543.000;  431.000
237.092;   58.575;  412.000;  391.000
237.236;  -84.000; -589.000; -502.000
237.379;   70.875;  352.000;  428.000
237.522; -122.550; -879.000; -768.000
237.666;   -7.600; -271.000;   18.000
237.809; -118.425; -851.000; -823.000
237.952;   39.200;  469.000;  271.000
238.095;  -67.125; -447.000; -442.000
238.238;   86.150;  688.000;  700.000
238.382;   -2.500;  166.000;  103.000
238.525;  -67.675; -598.000; -511.000
238.668; -135.175;-1060.000; -985.000
238.811;  -66.250; -638.000; -643.000
238.954;  -57.450; -483.000; -334.000
239.097;   91.050;  617.000;  664.000
239.241;   17.375;  394.000;  326.000
239.384;  -31.675; -254.000; -214.000
239.527;  -66.900; -424.000; -224.000
239.670; -140.600; -994.000;-1091.000
239.813; -101.750; -696.000; -658.000
239.956;   73.325;  579.000;  473.000
240.099; -107.625; -778.000; -725.000
240.242;   70.925;  428.000;  432.000
240.385;   47.250;  466.000;  450.000
240.528;  -65.675; -706.000; -473.000
240.671;   12.825;  189.000;  134.000
240.814;  -41.300; -441.000; -158.000
240.957; -108.250; -767.000; -578.000
241.100;  -89.350; -779.000; -755.000
241.243; -138.675;-1234.000; -893.000
241.386;  -63.125; -508.000; -379.000
241.529;  -93.350; -735.000; -547.000
241.672;  -67.650; -566.000; -495.000
241.815; -122.075; -832.000; -808.000
241.958;  -24.250; -125.000; -182.000
242.101;  -83.875; -545.000; -390.000
242.244;  -37.125; -270.000; -325.000
242.387;  -47.925; -304.000; -246.000
242.530;   49.775;  470.000;  134.000
242.673;  -32.300; -381.000; -309.000
242.815; -112.175; -925.000; -899.000
242.958;  -71.725; -482.000; -381.000
243.101;   11.975;  132.000;  187.000
243.244;  -89.725; -564.000; -521.000
243.387;  -42.475; -313.000; -316.000
243.530;  -80.625; -657.000; -674.000
243.672;    8.850;   43.000;  -92.000
243.815;  -60.100; -355.000; -283.000
243.958;   -1.150;   98.000;  -26.000
244.101;   -3.575;   59.000;  -16.000
244.243;  -10.975;  -47.000;  101.000
244.386; -101.275; -761.000; -630.000
244.529;  -28.825; -132.000; -139.000
244.672; -158.050;-1154.000; -951.000
244.814; -100.575; -621.000; -794.000
244.957;  -38.350; -380.000; -304.000
245.100;  -83.400; -489.000; -489.000
245.242;  -55.875; -387.000; -374.000
245.385;    4.250;  -59.000;  -39.000
245.528; -118.625; -871.000; -705.000
245.670;   97.850;  612.000;  634.000
245.813;  -92.025; -599.000; -547.000
245.956;  -31.950; -324.000; -275.000
246.098;  -72.250; -508.000; -650.000
246.241;    5.375;  194.000;   48.000
246.383;  -22.650; -119.000;  -73.000
246.526;  -73.800; -454.000; -525.000
246.669; -122.350; -889.000; -780.000
246.811;   18.725;  172.000;   -1.000
246.954;  -62.175; -512.000; -426.000
247.096;  -26.925;  -84.000;   -6.000
247.239;  -71.925; -482.000; -445.000
247.381;  -68.725; -647.000; -488.000
247.524;   81.075;  645.000;  679.000
247.666;    3.500;   58.000;   11.000
247.809; -104.125; -887.000; -691.000
247.951;   -6.000;  -75.000;  138.000
248.094;   24.775;  432.000;  308.000
248.236; -164.350;-1262.000;-1238.000
248.378;    9.150; -356.000;  -81.000
248.521;  -10.300; -334.000; -337.000
248.663;  -34.975; -236.000; -267.000
248.806;  -22.225; -300.000; -266.000
248.948;  -87.775; -886.000; -763.000
249.090;  -57.475; -428.000; -398.000
249.233;  -59.150; -344.000; -381.000
249.375;  -67.400; -474.000; -451.000
249.518;  -31.450;  -83.000; -133.000
249.660;  -12.500; -103.000;    3.000
249.802; -164.425;-1303.000;-1189.000
249.945;  -75.275; -612.000; -540.000
250.087; -118.025; -834.000; -768.000
250.229;  -40.975; -362.000; -480.000
250.371;  -86.850; -494.000; -439.000
250.514;  -49.450; -310.000; -244.000
250.656;   -5.100;   69.000;  102.000
250.798; -120.275; -849.000; -800.000
250.940;  -60.950; -322.000; -322.000
251.083;  -33.075; -335.000; -111.000
251.225;   56.125;  338.000;  310.000
251.367;  -37.725; -274.000; -373.000
251.509;  -36.900; -265.000; -210.000
251.651;  -84.625; -731.000; -671.000
251.794;   83.125;  538.000;  632.000
251.936;  -98.075; -821.000; -747.000
252.078;  -73.075; -540.000; -461.000
252.220;  -68.200; -645.000; -477.000
252.362;   83.375;  344.000;  462.000
252.504;  -68.125; -677.000; -584.000
252.646; -122.925; -875.000; -722.000
252.788;   -4.250;   14.000; -128.000
252.931;  -37.475; -257.000; -253.000
253.073;  -31.725; -376.000; -317.000
253.215;  -11.525;  141.000;  122.000
253.357;  -13.150;   82.000; -153.000
253.499;  -57.125; -374.000; -234.000
253.641;  -78.425; -749.000; -594.000
253.783;  -89.525; -609.000; -527.000
253.925;  -77.925; -586.000; -591.000
254.067; -107.650; -744.000; -667.000
254.209;  -31.525; -391.000; -259.000
254.351; -144.150; -865.000; -883.000
254.493;  -62.725; -441.000; -417.000
254.635; -136.125; -936.000; -818.000
254.777;  -87.900; -752.000; -687.000
254.918;  -69.650; -512.000; -430.000
255.060;  -48.375; -551.000; -395.000
255.202;  -67.550; -473.000; -261.000
255.344;  -70.875; -658.000; -455.000
255.486;  -69.800; -471.000; -406.000
255.628; -119.150; -780.000; -781.000
255.770;  -85.825; -676.000; -536.000
255.912;  -64.075; -559.000; -468.000
256.053;  -90.950; -730.000; -508.000
256.195;  148.400; 1008.000;  903.000
256.337;  -99.675; -861.000; -595.000
256.479;   51.975;  532.000;  416.000
256.621;  -53.550; -394.000; -212.000
256.762;  -99.100; -789.000; -742.000
256.904;   60.675;  485.000;  487.000
257.046;  -42.100; -381.000; -271.000
257.188;  -40.825; -351.000; -264.000
257.329;  -73.450; -525.000; -464.000
257.471; -110.925; -939.000; -807.000
257.613;  -56.525; -584.000; -498.000
257.755; -130.950;-1073.000; -982.000
257.896;   39.600;  286.000;  392.000
258.038;  -66.525; -403.000; -352.000
258.180;  -30.900; -354.000; -279.000
258.321;  -88.150; -581.000; -457.000
258.463;    5.175;  -71.000;  133.000
258.605;  -89.925; -562.000; -570.000
258.746; -103.700; -886.000; -772.000
258.888; -157.600;-1026.000;-1020.000
259.029;   21.125;  121.000;   -8.000
259.171;  -95.100; -614.000; -550.000
259.313;   -2.425;  -49.000;  -47.000
259.454;  -86.650; -536.000; -414.000
259.596;  -59.325; -483.000; -390.000
259.737;  -88.350; -590.000; -474.000
259.879;   37.825;  217.000;  311.000
260.020;   85.650;  901.000;  636.000
260.162;  -24.750; -146.000; -253.000
260.303; -110.125; -768.000; -687.000
260.445;  -76.175; -609.000; -613.000
260.586;   21.425;  392.000;  157.000
260.728;  -45.050; -360.000; -248.000
260.869; -111.150; -350.000; -343.000
261.011;   74.525;  706.000;  537.000
261.152;  -67.150; -479.000; -319.000
261.293;  -87.350; -576.000; -595.000
261.435;  -27.500; -219.000; -184.000
261.576;  -61.250; -455.000; -325.000
261.718;   47.925;  420.000;  470.000
261.859; -129.600; -940.000; -949.000
262.000; -127.275; -951.000;-1016.000
262.142;  -16.400;  -52.000;  -60.000
262.283; -111.100; -808.000; -691.000
262.424;  -90.825; -666.000; -625.000
262.566; -148.675;-1161.000; -983.000
262.707; -117.625; -840.000; -830.000
262.848; -128.625; -769.000; -726.000
262.990;  -43.475; -362.000; -345.000
263.131;   81.925;  650.000;  681.000
263.272;  -14.650;  -61.000;  -41.000
263.413;  -94.000; -589.000; -561.000
263.555;  -73.025; -669.000; -143.000
263.696;  -94.875; -550.000; -641.000
263.837;  -62.025; -449.000; -551.000
263.978;   16.675;   -5.000;  -77.000
264.119;  -43.850; -283.000; -264.000
264.261; -107.250; -847.000; -630.000
264.402;   20.000;   33.000;   40.000
264.543;  -76.575; -509.000; -524.000
264.684;  -15.200;   61.000;  -50.000
264.825;  -75.725; -816.000; -538.000
264.966;   -7.950;  -84.000;  -67.000
265.107; -112.075; -646.000; -670.000
265.248; -110.475; -825.000; -812.000
265.390;   -6.750;  152.000;   -9.000
265.531;  -17.500; -238.000; -107.000
265.672; -100.725; -557.000; -630.000
265.813;   71.775;  563.000;  439.000
265.954; -149.600; -959.000; -940.000
266.095;  -24.300; -372.000; -322.000
266.236;  -98.250; -686.000; -548.000
266.377;  -43.875; -243.000; -297.000
266.518;  -75.775; -619.000; -547.000
266.659;   25.150;  170.000;  268.000
266.800;   12.475;   83.000;   85.000
266.941;  -69.175; -487.000; -478.000
267.082;    3.800;  354.000;   99.000
267.223;  -58.375; -344.000; -273.000
267.364; -119.525; -892.000; -686.000
267.504;   -1.475;    3.000;  135.000
267.645;  -25.675;  160.000;   67.000
267.786;  -34.100; -147.000;  -86.000
267.927;  -87.675; -473.000; -379.000
268.068;  -15.575; -186.000;  -61.000
268.209;  -47.025; -175.000; -413.000
268.350;  -62.850; -388.000; -532.000
268.490;  -90.750; -648.000; -521.000
268.631;   25.325;  127.000;  225.000
268.772; -125.250; -874.000; -647.000
268.913;  -59.525; -328.000; -476.000
269.054;   -9.450; -117.000;   12.000
269.194;  -42.675; -418.000; -402.000
269.335; -162.525;-1137.000;-1074.000
269.476;  -14.025;   33.000;  -35.000
269.617;  -44.875; -347.000; -392.000
269.757;  -86.200; -713.000; -646.000
269.898; -106.250; -856.000; -613.000
270.039;  -54.200; -415.000; -405.000
270.180; -131.150; -952.000; -816.000
270.320;  -28.250; -190.000; -250.000
