
Integration time [ms]: 100.000
Averaging Nr. [scans]: 40
Smoothing Nr. [pixels]: 0
Data measured with spectrometer [name]: 2101012U2
Wave   ;Sample   ;Dark     ;Reference
[nm]   ;[counts] ;[counts] ;[counts] 

197.733;   77.150;  516.000;  404.000
197.879;  -84.925; -610.000; -634.000
198.025;  -51.325; -475.000; -420.000
198.171;  -74.025; -602.000; -612.000
198.317;  -16.800; -401.000; -316.000
198.463;  -67.850; -655.000; -404.000
198.609;   33.775;  181.000; -137.000
198.755;  -83.325; -644.000; -410.000
198.901;  -75.650; -505.000; -424.000
199.047;  -61.725; -615.000; -488.000
199.193;  -44.950; -230.000; -468.000
199.339;  -52.650; -222.000; -369.000
199.485;   38.675;  330.000;  271.000
199.631;   13.800;  227.000;  310.000
199.777;  -51.225; -466.000; -398.000
199.923;  -83.375; -610.000; -424.000
200.069;   12.875; -141.000;  -58.000
200.215;   53.325;  128.000;  453.000
200.361;   46.500;  243.000;  477.000
200.507;  -71.250; -600.000; -373.000
200.653;  -15.525; -371.000; -194.000
200.798;  -44.750; -215.000; -125.000
200.944;  -12.725; -146.000;  -41.000
201.090;   28.650;   61.000;  222.000
201.236;  -11.400; -116.000; -158.000
201.382;  132.375;  874.000;  903.000
201.528;    5.200;  -58.000;  -48.000
201.674;  -63.475; -386.000; -293.000
201.819;  -55.825; -540.000; -439.000
201.965;  -94.075; -699.000; -447.000
202.111;  -30.725; -273.000; -226.000
202.257;  -34.550; -250.000; -238.000
202.402;    6.850;   13.000;  -36.000
202.548;  -33.250; -169.000; -116.000
202.694;   81.825;  410.000; -183.000
202.840;  -64.850; -603.000; -531.000
202.985;  -64.850; -681.000; -639.000
203.131; -109.900; -832.000; -666.000
203.277;  -23.150; -199.000; -262.000
203.423;  -66.400; -434.000; -520.000
203.568;  -44.100; -462.000; -237.000
203.714;  -71.875; -535.000; -542.000
203.860;  -79.325; -682.000; -641.000
204.005;   14.300;  112.000;  167.000
204.151;   75.400;  561.000;  556.000
204.296;  -50.025; -354.000; -221.000
204.442;  -71.825; -600.000; -547.000
204.588;  -86.600; -592.000; -579.000
204.733;   23.275;  178.000;  168.000
204.879; -137.975;-1018.000; -822.000
205.025;   12.775;  -99.000;  126.000
205.170;    8.575;  -17.000;   94.000
205.316;   99.525;  438.000;  661.000
205.461;  -78.975; -698.000; -554.000
205.607;   85.400;  609.000;  665.000
205.752;  -93.975; -626.000; -551.000
205.898;  -51.550; -501.000; -391.000
206.043;  -61.750; -578.000; -506.000
206.189;  -43.925; -243.000; -285.000
206.334;   71.725;  554.000;  606.000
206.480;   85.575;  409.000;  239.000
206.625;  -80.300; -529.000; -552.000
206.771;  -50.925; -451.000; -373.000
206.916;  -29.975; -210.000; -537.000
207.062;  -71.850; -545.000; -591.000
207.207;  -71.750; -546.000; -443.000
207.353;   57.250;  185.000;  460.000
207.498;   19.400;  196.000;   85.000
207.643;  -47.350; -501.000; -370.000
207.789; -126.350;-1069.000; -910.000
207.934; -103.225; -665.000; -713.000
208.080;  -28.250; -154.000;   66.000
208.225;   -9.150;  -22.000;  -57.000
208.370;  -94.500; -727.000; -619.000
208.516;  -71.125; -741.000; -487.000
208.661;  -33.300; -127.000;  -69.000
208.806;  -18.500; -165.000; -171.000
208.952; -128.850;-1044.000; -731.000
209.097;   83.400;  378.000;  349.000
209.242;  -50.800; -307.000; -382.000
209.387;   64.425;  392.000;  350.000
209.533;  -47.225; -321.000; -350.000
209.678;   78.700;  472.000;  543.000
209.823;  -60.175; -408.000; -310.000
209.969; -102.475; -860.000; -757.000
210.114; -102.000; -907.000; -719.000
210.259; -122.925; -939.000; -889.000
210.404;    7.475; -171.000;  103.000
210.549;    9.450;  108.000;    3.000
210.695;  -19.350;   -3.000;  -95.000
210.840;   34.025;   94.000;   67.000
210.985;  -76.450; -484.000; -303.000
211.130;   71.600;  268.000;  406.000
211.275;   20.500;  207.000;  199.000
211.420;  -53.625; -300.000; -289.000
211.566;  -74.075; -536.000; -489.000
211.711;   26.250;  218.000;  157.000
211.856;  -74.700; -545.000; -519.000
212.001;    8.875;  151.000;   44.000
212.146;   18.575;  153.000;   49.000
212.291;  -13.125; -210.000; -186.000
212.436;  -39.000; -280.000;   -6.000
212.581;  -87.250; -685.000; -653.000
212.726;  -82.375; -487.000; -538.000
212.871;  -49.575; -552.000; -217.000
213.016; -158.650;-1172.000;-1029.000
213.161;   64.525;  406.000;  291.000
213.306;  -87.250; -435.000; -577.000
213.451;  -86.175; -778.000; -689.000
213.596;  -40.550; -455.000; -347.000
213.741;  -84.975; -448.000; -538.000
213.886;  -93.875; -498.000; -517.000
214.031;  -16.725; -294.000; -124.000
214.176;  -45.700; -408.000; -341.000
214.321;   -7.475; -296.000; -157.000
214.466;  -14.075; -163.000;  -43.000
214.611;   -5.750;  -61.000;  -10.000
214.756; -126.325; -948.000; -858.000
214.901;  -18.225; -388.000; -226.000
215.046; -137.575; -797.000; -825.000
215.191;   12.175;  128.000;   35.000
215.336;  -11.125; -157.000;  -19.000
215.480;  -72.050; -684.000; -505.000
215.625;   -8.375; -175.000;  -19.000
215.770;  -80.650; -757.000; -662.000
215.915;   -8.350;   -5.000;  -97.000
216.060;   -6.650; -113.000;  -21.000
216.205; -120.750; -731.000; -779.000
216.349;  -79.325; -470.000; -533.000
216.494; -139.075; -939.000; -867.000
216.639; -127.200; -823.000; -888.000
216.784; -105.525; -577.000; -525.000
216.929;   45.100;  392.000;  281.000
217.073;  -15.600; -244.000;  -31.000
217.218;    4.850;   78.000;  -47.000
217.363;  -82.875; -656.000; -618.000
217.507;  -84.125; -623.000; -588.000
217.652; -121.700; -845.000; -874.000
217.797;  -95.175; -708.000; -659.000
217.942; -114.200; -856.000; -720.000
218.086;   81.775;  608.000;  539.000
218.231;  -11.425; -174.000;  -26.000
218.376;  -37.475; -337.000; -229.000
218.520;    2.350;  -41.000;   96.000
218.665;  -25.600; -338.000; -204.000
218.810;  -48.450; -275.000; -233.000
218.954;   11.800;  201.000;   35.000
219.099; -125.050; -713.000; -963.000
219.243;  -65.600; -589.000; -554.000
219.388;  -37.950; -264.000; -136.000
219.532;    0.650; -116.000; -116.000
219.677;  -82.475; -564.000; -521.000
219.822;    2.825;   33.000;   89.000
219.966;  -10.550;   17.000;  -99.000
220.111;  -25.000; -328.000;  -40.000
220.255; -100.700; -797.000; -750.000
220.400;  -10.950; -180.000; -146.000
220.544;  -66.725; -516.000; -450.000
220.689;  -46.100; -422.000; -451.000
220.833;  -17.000; -123.000;  -58.000
220.978;  -39.525; -393.000; -563.000
221.122;   15.175;  319.000;  307.000
221.267; -124.350; -906.000; -837.000
221.411;  -72.600; -478.000; -394.000
221.555;   -2.050; -104.000;  -23.000
221.700;  -52.325; -329.000; -222.000
221.844;   34.150;  255.000;  272.000
221.989;  -40.225; -328.000; -311.000
222.133;  -41.475; -289.000; -307.000
222.277;  -11.350;    5.000;   78.000
222.422;    8.325;  227.000;  113.000
222.566;  -40.950; -381.000; -214.000
222.711;  -54.375; -414.000; -479.000
222.855;  -75.675; -643.000; -586.000
222.999;  -88.350; -642.000; -717.000
223.144;  -37.650; -195.000; -194.000
223.288;   53.000;  423.000;  251.000
223.432;   30.375;  184.000;  230.000
223.576;   16.275;  152.000;  -21.000
223.721;   40.275;  364.000;  273.000
223.865;  -50.825; -472.000; -475.000
224.009;  247.650; 1673.000; 1631.000
224.153;  -90.675; -660.000; -671.000
224.298;  -76.075; -531.000; -489.000
224.442;   -1.075;  -74.000;  -33.000
224.586;   -4.725; -169.000; -106.000
224.730;  -97.900; -858.000; -670.000
224.875; -105.775; -739.000; -688.000
225.019;   21.975;  102.000;  188.000
225.163;   48.275;  208.000;  341.000
225.307;   10.725;   97.000;  -91.000
225.451;   48.450;  360.000;  481.000
225.595;   42.825;  264.000;  176.000
225.739;  -12.225; -170.000;  -94.000
225.884;   -7.650;   86.000;    5.000
226.028; -105.250; -760.000; -626.000
226.172;  -36.975; -260.000; -273.000
226.316; -119.425; -941.000; -902.000
226.460;  -59.500; -645.000; -493.000
226.604;  -52.425; -406.000; -400.000
226.748;  -99.650; -836.000; -733.000
226.892;  -39.075; -227.000; -181.000
227.036;  -44.025; -537.000; -447.000
227.180;  -53.425; -551.000; -375.000
227.324;  -77.275; -561.000; -580.000
227.468; -107.700; -819.000; -717.000
227.612;   18.000;  242.000;  -28.000
227.756; -104.450; -845.000; -698.000
227.900;   50.750;  342.000;  441.000
228.044;  -66.200; -509.000; -290.000
228.188;   65.425;  448.000;  568.000
228.332;  -95.575; -546.000; -472.000
228.476;  -43.725; -223.000; -149.000
228.620;  -20.225; -210.000; -150.000
228.764;   55.725;  431.000;  349.000
228.908;  -25.050; -155.000;   30.000
229.052;  -63.625; -615.000; -528.000
229.195;  -17.475; -172.000;   13.000
229.339;  -26.575; -235.000; -305.000
229.483;  -21.275;    5.000; -162.000
229.627;    2.475; -156.000;  139.000
229.771;  -45.450; -218.000; -294.000
229.915;   16.650;  230.000;   79.000
230.059; -100.475; -648.000; -663.000
230.202;  -33.175; -370.000; -317.000
230.346;  -12.125; -107.000;  107.000
230.490;  -72.575; -489.000; -521.000
230.634; -101.775; -736.000; -553.000
230.777;   86.600;  478.000;  509.000
230.921;  -58.775; -450.000; -359.000
231.065;  -31.825; -246.000; -286.000
231.209;   37.800;  261.000;  265.000
231.352;    8.700;   54.000;   40.000
231.496;   14.275;  568.000;  188.000
231.640;  -78.500; -693.000; -621.000
231.783;   59.550;  546.000;  525.000
231.927;  -34.275; -294.000; -365.000
232.071; -124.125; -962.000; -736.000
232.214; -112.075; -980.000; -764.000
232.358; -101.950; -683.000; -599.000
232.502;    5.900;  -19.000;    7.000
232.645; -145.950;-1090.000; -927.000
232.789;  -28.125; -257.000; -218.000
232.933;  -46.225; -407.000; -224.000
233.076; -134.650;-1038.000; -897.000
233.220; -104.500; -752.000; -777.000
233.363;  -72.850; -669.000; -477.000
233.507;   67.925;  371.000;  129.000
233.650;  -94.525; -764.000; -834.000
233.794;   41.050;  438.000;  461.000
233.938;  -69.200; -530.000; -362.000
234.081;  -13.950;  -93.000;   31.000
234.225;  -63.125; -631.000; -539.000
234.368; -120.050; -773.000; -723.000
234.512;  -43.450; -385.000; -299.000
234.655;  -99.750; -582.000; -555.000
234.798;  -57.775; -493.000; -466.000
234.942; -135.900; -884.000;-1002.000
235.085;  -76.175; -651.000; -443.000
235.229;  -70.225; -405.000; -410.000
235.372;  -53.900; -247.000; -191.000
235.516;  -67.175; -397.000; -321.000
235.659;   29.750;   92.000;  121.000
235.802;  -15.375;  -38.000;  -22.000
235.946;   36.650;  335.000;  215.000
236.089;   20.175;  126.000;  250.000
236.233;   56.775;  275.000;  298.000
236.376;  -58.525; -235.000; -378.000
236.519;  -52.300; -297.000; -319.000
236.663;  -22.025; -215.000; -117.000
236.806; -122.800;-1029.000; -999.000
236.949;   53.350;  543.000;  431.000
237.092;   75.000;  412.000;  391.000
237.236;  -98.275; -589.000; -502.000
237.379;   60.550;  352.000;  428.000
237.522; -121.000; -879.000; -768.000
237.666;  -18.075; -271.000;   18.000
237.809; -124.225; -851.000; -823.000
237.952;   44.200;  469.000;  271.000
238.095;  -72.000; -447.000; -442.000
238.238;   80.950;  688.000;  700.000
238.382;   -8.250;  166.000;  103.000
238.525;  -71.525; -598.000; -511.000
238.668; -144.500;-1060.000; -985.000
238.811;  -83.200; -638.000; -643.000
238.954;  -70.325; -483.000; -334.000
239.097;   92.750;  617.000;  664.000
239.241;   20.125;  394.000;  326.000
239.384;  -34.325; -254.000; -214.000
239.527;  -80.375; -424.000; -224.000
239.670; -145.900; -994.000;-1091.000
239.813; -120.850; -696.000; -658.000
239.956;   80.550;  579.000;  473.000
240.099; -123.150; -778.000; -725.000
240.242;   67.450;  428.000;  432.000
240.385;   41.525;  466.000;  450.000
240.528;  -71.675; -706.000; -473.000
240.671;   16.250;  189.000;  134.000
240.814;  -45.375; -441.000; -158.000
240.957; -101.125; -767.000; -578.000
241.100; -109.725; -779.000; -755.000
241.243; -148.725;-1234.000; -893.000
241.386;  -65.850; -508.000; -379.000
241.529;  -86.300; -735.000; -547.000
241.672;  -65.750; -566.000; -495.000
241.815; -123.450; -832.000; -808.000
241.958;  -21.725; -125.000; -182.000
242.101;  -75.500; -545.000; -390.000
242.244;  -44.525; -270.000; -325.000
242.387;  -40.775; -304.000; -246.000
242.530;   66.375;  470.000;  134.000
242.673;  -51.425; -381.000; -309.000
242.815; -122.100; -925.000; -899.000
242.958;  -77.975; -482.000; -381.000
243.101;   16.850;  132.000;  187.000
243.244;  -78.900; -564.000; -521.000
243.387;  -49.075; -313.000; -316.000
243.530; -107.425; -657.000; -674.000
243.672;    5.250;   43.000;  -92.000
243.815;  -42.850; -355.000; -283.000
243.958;   -4.125;   98.000;  -26.000
244.101;    6.500;   59.000;  -16.000
244.243;  -13.200;  -47.000;  101.000
244.386; -117.750; -761.000; -630.000
244.529;  -21.900; -132.000; -139.000
244.672; -153.325;-1154.000; -951.000
244.814;  -98.350; -621.000; -794.000
244.957;  -65.650; -380.000; -304.000
245.100;  -73.850; -489.000; -489.000
245.242;  -74.800; -387.000; -374.000
245.385;   -3.850;  -59.000;  -39.000
245.528; -120.900; -871.000; -705.000
245.670;   83.200;  612.000;  634.000
245.813;  -86.850; -599.000; -547.000
245.956;  -39.650; -324.000; -275.000
246.098;  -80.300; -508.000; -650.000
246.241;   -9.150;  194.000;   48.000
246.383;  -26.200; -119.000;  -73.000
246.526;  -81.925; -454.000; -525.000
246.669; -133.425; -889.000; -780.000
246.811;   23.925;  172.000;   -1.000
246.954;  -69.925; -512.000; -426.000
247.096;  -24.925;  -84.000;   -6.000
247.239;  -75.350; -482.000; -445.000
247.381;  -76.125; -647.000; -488.000
247.524;   94.975;  645.000;  679.000
247.666;  -11.175;   58.000;   11.000
247.809; -115.475; -887.000; -691.000
247.951;   -7.025;  -75.000;  138.000
248.094;   35.300;  432.000;  308.000
248.236; -158.900;-1262.000;-1238.000
248.378;   -9.050; -356.000;  -81.000
248.521;  -21.775; -334.000; -337.000
248.663;  -44.650; -236.000; -267.000
248.806;  -15.725; -300.000; -266.000
248.948;  -91.150; -886.000; -763.000
249.090;  -46.875; -428.000; -398.000
249.233;  -42.650; -344.000; -381.000
249.375;  -58.325; -474.000; -451.000
249.518;  -26.550;  -83.000; -133.000
249.660;   -5.850; -103.000;    3.000
249.802; -178.525;-1303.000;-1189.000
249.945;  -83.400; -612.000; -540.000
250.087; -107.600; -834.000; -768.000
250.229;  -51.775; -362.000; -480.000
250.371;  -78.425; -494.000; -439.000
250.514;  -50.225; -310.000; -244.000
250.656;  -34.200;   69.000;  102.000
250.798; -114.200; -849.000; -800.000
250.940;  -62.600; -322.000; -322.000
251.083;  -30.575; -335.000; -111.000
251.225;   54.725;  338.000;  310.000
251.367;  -45.900; -274.000; -373.000
251.509;  -31.325; -265.000; -210.000
251.651; -105.150; -731.000; -671.000
251.794;   44.250;  538.000;  632.000
251.936; -113.500; -821.000; -747.000
252.078;  -93.625; -540.000; -461.000
252.220;  -76.050; -645.000; -477.000
252.362;   79.675;  344.000;  462.000
252.504;  -65.650; -677.000; -584.000
252.646; -117.025; -875.000; -722.000
252.788;   -0.075;   14.000; -128.000
252.931;  -37.150; -257.000; -253.000
253.073;  -29.375; -376.000; -317.000
253.215;    2.800;  141.000;  122.000
253.357;  -19.425;   82.000; -153.000
253.499;  -53.425; -374.000; -234.000
253.641;  -86.000; -749.000; -594.000
253.783;  -94.925; -609.000; -527.000
253.925;  -80.000; -586.000; -591.000
254.067; -108.825; -744.000; -667.000
254.209;  -26.850; -391.000; -259.000
254.351; -146.925; -865.000; -883.000
254.493;  -67.225; -441.000; -417.000
254.635; -144.800; -936.000; -818.000
254.777;  -93.250; -752.000; -687.000
254.918;  -72.050; -512.000; -430.000
255.060;  -68.500; -551.000; -395.000
255.202;  -71.825; -473.000; -261.000
255.344;  -73.675; -658.000; -455.000
255.486;  -63.375; -471.000; -406.000
255.628; -118.700; -780.000; -781.000
255.770;  -87.475; -676.000; -536.000
255.912;  -70.775; -559.000; -468.000
256.053;  -90.650; -730.000; -508.000
256.195;  157.525; 1008.000;  903.000
256.337; -110.025; -861.000; -595.000
256.479;   55.450;  532.000;  416.000
256.621;  -57.900; -394.000; -212.000
256.762;  -97.275; -789.000; -742.000
256.904;   47.550;  485.000;  487.000
257.046;  -38.450; -381.000; -271.000
257.188;  -39.625; -351.000; -264.000
257.329;  -65.400; -525.000; -464.000
257.471; -125.325; -939.000; -807.000
257.613;  -74.225; -584.000; -498.000
257.755; -144.200;-1073.000; -982.000
257.896;   33.900;  286.000;  392.000
258.038;  -72.625; -403.000; -352.000
258.180;  -50.225; -354.000; -279.000
258.321; -103.125; -581.000; -457.000
258.463;   -5.100;  -71.000;  133.000
258.605;  -86.775; -562.000; -570.000
258.746; -107.800; -886.000; -772.000
258.888; -151.450;-1026.000;-1020.000
259.029;   27.525;  121.000;   -8.000
259.171;  -85.700; -614.000; -550.000
259.313;    3.825;  -49.000;  -47.000
259.454;  -80.900; -536.000; -414.000
259.596;  -47.625; -483.000; -390.000
259.737;  -89.225; -590.000; -474.000
259.879;   39.175;  217.000;  311.000
260.020;   89.350;  901.000;  636.000
260.162;  -27.225; -146.000; -253.000
260.303; -115.150; -768.000; -687.000
260.445;  -88.475; -609.000; -613.000
260.586;   19.275;  392.000;  157.000
260.728;  -46.625; -360.000; -248.000
260.869; -111.250; -350.000; -343.000
261.011;   63.500;  706.000;  537.000
261.152;  -74.500; -479.000; -319.000
261.293;  -70.050; -576.000; -595.000
261.435;  -36.325; -219.000; -184.000
261.576;  -47.400; -455.000; -325.000
261.718;   47.400;  420.000;  470.000
261.859; -129.250; -940.000; -949.000
262.000; -134.650; -951.000;-1016.000
262.142;  -10.525;  -52.000;  -60.000
262.283; -115.300; -808.000; -691.000
262.424;  -83.550; -666.000; -625.000
262.566; -153.325;-1161.000; -983.000
262.707; -108.150; -840.000; -830.000
262.848; -137.800; -769.000; -726.000
262.990;  -56.900; -362.000; -345.000
263.131;   70.075;  650.000;  681.000
263.272;   -3.675;  -61.000;  -41.000
263.413;  -99.125; -589.000; -561.000
263.555;  -70.550; -669.000; -143.000
263.696;  -92.200; -550.000; -641.000
263.837;  -60.000; -449.000; -551.000
263.978;  -31.875;   -5.000;  -77.000
264.119;  -59.100; -283.000; -264.000
264.261; -131.925; -847.000; -630.000
264.402;   -2.175;   33.000;   40.000
264.543;  -72.225; -509.000; -524.000
264.684;   -1.475;   61.000;  -50.000
264.825;  -79.300; -816.000; -538.000
264.966;  -10.900;  -84.000;  -67.000
265.107; -120.550; -646.000; -670.000
265.248; -124.350; -825.000; -812.000
265.390;  -21.450;  152.000;   -9.000
265.531;  -12.825; -238.000; -107.000
265.672;  -95.750; -557.000; -630.000
265.813;   56.725;  563.000;  439.000
265.954; -147.600; -959.000; -940.000
266.095;  -27.650; -372.000; -322.000
266.236;  -99.325; -686.000; -548.000
266.377;  -47.600; -243.000; -297.000
266.518;  -75.675; -619.000; -547.000
266.659;   20.050;  170.000;  268.000
266.800;    7.475;   83.000;   85.000
266.941;  -75.950; -487.000; -478.000
267.082;   31.325;  354.000;   99.000
267.223;  -65.625; -344.000; -273.000
267.364; -126.725; -892.000; -686.000
267.504;  -17.325;    3.000;  135.000
267.645;   -9.175;  160.000;   67.000
267.786;  -41.325; -147.000;  -86.000
267.927;  -85.825; -473.000; -379.000
268.068;  -24.150; -186.000;  -61.000
268.209;  -45.325; -175.000; -413.000
268.350;  -59.225; -388.000; -532.000
268.490;  -88.800; -648.000; -521.000
268.631;   38.250;  127.000;  225.000
268.772; -116.600; -874.000; -647.000
268.913;  -53.800; -328.000; -476.000
269.054;   -3.325; -117.000;   12.000
269.194;  -42.625; -418.000; -402.000
269.335; -167.000;-1137.000;-1074.000
269.476;  -24.125;   33.000;  -35.000
269.617;  -41.225; -347.000; -392.000
269.757;  -81.750; -713.000; -646.000
269.898; -110.975; -856.000; -613.000
270.039;  -63.300; -415.000; -405.000
270.180; -152.475; -952.000; -816.000
270.320;  -15.425; -190.000; -250.000
