
Integration time [ms]: 200.000
Averaging Nr. [scans]: 10
Smoothing Nr. [pixels]: 0
Data measured with spectrometer [name]: 2101012U2
Wave   ;Sample   ;Dark     ;Reference
[nm]   ;[counts] ;[counts] ;[counts] 

197.733;  136.300;  516.000;  404.000
197.879; -154.900; -610.000; -634.000
198.025; -108.900; -475.000; -420.000
198.171; -136.500; -602.000; -612.000
198.317;  -55.700; -401.000; -316.000
198.463; -115.200; -655.000; -404.000
198.609;   63.500;  181.000; -137.000
198.755; -137.600; -644.000; -410.000
198.901; -135.100; -505.000; -424.000
199.047; -116.200; -615.000; -488.000
199.193; -117.300; -230.000; -468.000
199.339;  -64.700; -222.000; -369.000
199.485;   78.800;  330.000;  271.000
199.631;   53.100;  227.000;  310.000
199.777; -126.500; -466.000; -398.000
199.923;  -99.200; -610.000; -424.000
200.069;   33.100; -141.000;  -58.000
200.215;  106.300;  128.000;  453.000
200.361;   77.600;  243.000;  477.000
200.507;  -96.000; -600.000; -373.000
200.653;  -34.200; -371.000; -194.000
200.798;  -51.800; -215.000; -125.000
200.944;   -3.200; -146.000;  -41.000
201.090;   93.000;   61.000;  222.000
201.236;   -9.900; -116.000; -158.000
201.382;  299.300;  874.000;  903.000
201.528;    3.000;  -58.000;  -48.000
201.674;  -91.000; -386.000; -293.000
201.819; -149.800; -540.000; -439.000
201.965; -137.800; -699.000; -447.000
202.111;  -35.500; -273.000; -226.000
202.257;  -54.200; -250.000; -238.000
202.402;   20.100;   13.000;  -36.000
202.548;  -56.700; -169.000; -116.000
202.694;  173.600;  410.000; -183.000
202.840; -174.700; -603.000; -531.000
202.985; -137.600; -681.000; -639.000
203.131; -193.900; -832.000; -666.000
203.277;  -31.800; -199.000; -262.000
203.423; -103.100; -434.000; -520.000
203.568;  -77.000; -462.000; -237.000
203.714;  -96.400; -535.000; -542.000
203.860; -160.900; -682.000; -641.000
204.005;   32.700;  112.000;  167.000
204.151;  151.800;  561.000;  556.000
204.296;  -57.500; -354.000; -221.000
204.442; -133.900; -600.000; -547.000
204.588; -129.600; -592.000; -579.000
204.733;   60.000;  178.000;  168.000
204.879; -236.800;-1018.000; -822.000
205.025;   27.900;  -99.000;  126.000
205.170;   18.500;  -17.000;   94.000
205.316;  153.300;  438.000;  661.000
205.461; -171.500; -698.000; -554.000
205.607;  193.500;  609.000;  665.000
205.752; -137.700; -626.000; -551.000
205.898; -132.600; -501.000; -391.000
206.043; -111.700; -578.000; -506.000
206.189;  -66.900; -243.000; -285.000
206.334;  161.400;  554.000;  606.000
206.480;  171.900;  409.000;  239.000
206.625; -154.200; -529.000; -552.000
206.771;  -82.300; -451.000; -373.000
206.916;  -61.100; -210.000; -537.000
207.062; -160.600; -545.000; -591.000
207.207;  -92.800; -546.000; -443.000
207.353;   90.000;  185.000;  460.000
207.498;   49.300;  196.000;   85.000
207.643; -109.000; -501.000; -370.000
207.789; -227.700;-1069.000; -910.000
207.934; -195.100; -665.000; -713.000
208.080;  -44.000; -154.000;   66.000
208.225;  -26.900;  -22.000;  -57.000
208.370; -153.400; -727.000; -619.000
208.516; -163.100; -741.000; -487.000
208.661;  -34.100; -127.000;  -69.000
208.806;  -24.800; -165.000; -171.000
208.952; -216.100;-1044.000; -731.000
209.097;  160.700;  378.000;  349.000
209.242;  -65.900; -307.000; -382.000
209.387;   77.600;  392.000;  350.000
209.533;  -90.500; -321.000; -350.000
209.678;  171.200;  472.000;  543.000
209.823; -102.800; -408.000; -310.000
209.969; -211.100; -860.000; -757.000
210.114; -197.500; -907.000; -719.000
210.259; -238.000; -939.000; -889.000
210.404;  -23.600; -171.000;  103.000
210.549;   21.500;  108.000;    3.000
210.695;    3.800;   -3.000;  -95.000
210.840;   89.800;   94.000;   67.000
210.985; -100.200; -484.000; -303.000
211.130;  128.600;  268.000;  406.000
211.275;   53.900;  207.000;  199.000
211.420; -104.400; -300.000; -289.000
211.566; -115.800; -536.000; -489.000
211.711;   57.700;  218.000;  157.000
211.856; -119.300; -545.000; -519.000
212.001;   51.400;  151.000;   44.000
212.146;   24.500;  153.000;   49.000
212.291;  -36.800; -210.000; -186.000
212.436;  -76.000; -280.000;   -6.000
212.581; -177.700; -685.000; -653.000
212.726;  -91.500; -487.000; -538.000
212.871;  -88.300; -552.000; -217.000
213.016; -299.100;-1172.000;-1029.000
213.161;  117.600;  406.000;  291.000
213.306; -148.000; -435.000; -577.000
213.451; -194.400; -778.000; -689.000
213.596;  -90.200; -455.000; -347.000
213.741; -120.400; -448.000; -538.000
213.886; -135.900; -498.000; -517.000
214.031;  -64.400; -294.000; -124.000
214.176;  -77.600; -408.000; -341.000
214.321;  -30.800; -296.000; -157.000
214.466;  -16.400; -163.000;  -43.000
214.611;  -10.800;  -61.000;  -10.000
214.756; -225.100; -948.000; -858.000
214.901;  -23.600; -388.000; -226.000
215.046; -235.800; -797.000; -825.000
215.191;   58.600;  128.000;   35.000
215.336;    2.900; -157.000;  -19.000
215.480; -174.500; -684.000; -505.000
215.625;   10.500; -175.000;  -19.000
215.770; -171.000; -757.000; -662.000
215.915;   -6.000;   -5.000;  -97.000
216.060;  -32.100; -113.000;  -21.000
216.205; -208.300; -731.000; -779.000
216.349; -131.100; -470.000; -533.000
216.494; -220.600; -939.000; -867.000
216.639; -220.500; -823.000; -888.000
216.784; -171.900; -577.000; -525.000
216.929;  149.800;  392.000;  281.000
217.073;   -6.600; -244.000;  -31.000
217.218;   24.400;   78.000;  -47.000
217.363; -167.500; -656.000; -618.000
217.507; -176.700; -623.000; -588.000
217.652; -226.300; -845.000; -874.000
217.797; -175.000; -708.000; -659.000
217.942; -210.600; -856.000; -720.000
218.086;  154.000;  608.000;  539.000
218.231;  -23.100; -174.000;  -26.000
218.376;  -63.100; -337.000; -229.000
218.520;   39.400;  -41.000;   96.000
218.665;  -58.700; -338.000; -204.000
218.810;  -66.200; -275.000; -233.000
218.954;   32.500;  201.000;   35.000
219.099; -219.200; -713.000; -963.000
219.243; -145.400; -589.000; -554.000
219.388;  -26.000; -264.000; -136.000
219.532;  -16.700; -116.000; -116.000
219.677; -139.800; -564.000; -521.000
219.822;   10.800;   33.000;   89.000
219.966;   54.700;   17.000;  -99.000
220.111;  -37.600; -328.000;  -40.000
220.255; -182.000; -797.000; -750.000
220.400;  -25.900; -180.000; -146.000
220.544; -140.200; -516.000; -450.000
220.689; -113.700; -422.000; -451.000
220.833;  -34.800; -123.000;  -58.000
220.978; -121.300; -393.000; -563.000
221.122;   89.800;  319.000;  307.000
221.267; -257.500; -906.000; -837.000
221.411; -102.800; -478.000; -394.000
221.555;  -39.900; -104.000;  -23.000
221.700;  -77.300; -329.000; -222.000
221.844;   60.400;  255.000;  272.000
221.989;  -81.000; -328.000; -311.000
222.133;  -92.300; -289.000; -307.000
222.277;   34.400;    5.000;   78.000
222.422;   32.200;  227.000;  113.000
222.566;  -34.600; -381.000; -214.000
222.711; -136.300; -414.000; -479.000
222.855; -124.500; -643.000; -586.000
222.999; -165.800; -642.000; -717.000
223.144;  -13.100; -195.000; -194.000
223.288;   81.000;  423.000;  251.000
223.432;   58.100;  184.000;  230.000
223.576;   22.000;  152.000;  -21.000
223.721;   96.300;  364.000;  273.000
223.865; -115.100; -472.000; -475.000
224.009;  476.400; 1673.000; 1631.000
224.153; -163.300; -660.000; -671.000
224.298; -116.200; -531.000; -489.000
224.442;   -5.900;  -74.000;  -33.000
224.586;   -2.000; -169.000; -106.000
224.730; -184.100; -858.000; -670.000
224.875; -190.500; -739.000; -688.000
225.019;   16.200;  102.000;  188.000
225.163;  137.000;  208.000;  341.000
225.307;   55.200;   97.000;  -91.000
225.451;  134.700;  360.000;  481.000
225.595;   79.200;  264.000;  176.000
225.739;  -18.200; -170.000;  -94.000
225.884;   25.300;   86.000;    5.000
226.028; -167.400; -760.000; -626.000
226.172;  -62.000; -260.000; -273.000
226.316; -211.300; -941.000; -902.000
226.460; -158.500; -645.000; -493.000
226.604;  -60.600; -406.000; -400.000
226.748; -206.700; -836.000; -733.000
226.892;  -28.400; -227.000; -181.000
227.036; -110.200; -537.000; -447.000
227.180;  -71.300; -551.000; -375.000
227.324; -139.800; -561.000; -580.000
227.468; -223.800; -819.000; -717.000
227.612;   14.900;  242.000;  -28.000
227.756; -194.000; -845.000; -698.000
227.900;   90.700;  342.000;  441.000
228.044; -119.100; -509.000; -290.000
228.188;  155.000;  448.000;  568.000
228.332; -143.200; -546.000; -472.000
228.476;  -23.500; -223.000; -149.000
228.620;  -58.600; -210.000; -150.000
228.764;  139.800;  431.000;  349.000
228.908;  -45.100; -155.000;   30.000
229.052; -108.000; -615.000; -528.000
229.195;   -5.500; -172.000;   13.000
229.339;  -40.200; -235.000; -305.000
229.483;  -11.500;    5.000; -162.000
229.627;    2.300; -156.000;  139.000
229.771;  -83.900; -218.000; -294.000
229.915;   44.000;  230.000;   79.000
230.059; -180.800; -648.000; -663.000
230.202;  -63.200; -370.000; -317.000
230.346;   13.700; -107.000;  107.000
230.490; -109.600; -489.000; -521.000
230.634; -174.300; -736.000; -553.000
230.777;  183.600;  478.000;  509.000
230.921;  -54.300; -450.000; -359.000
231.065; -107.900; -246.000; -286.000
231.209;   90.500;  261.000;  265.000
231.352;   38.600;   54.000;   40.000
231.496;   96.400;  568.000;  188.000
231.640; -170.800; -693.000; -621.000
231.783;  170.900;  546.000;  525.000
231.927;  -88.800; -294.000; -365.000
232.071; -202.700; -962.000; -736.000
232.214; -227.000; -980.000; -764.000
232.358; -174.400; -683.000; -599.000
232.502;   18.700;  -19.000;    7.000
232.645; -257.400;-1090.000; -927.000
232.789;  -42.000; -257.000; -218.000
232.933;  -70.200; -407.000; -224.000
233.076; -245.500;-1038.000; -897.000
233.220; -179.800; -752.000; -777.000
233.363; -138.900; -669.000; -477.000
233.507;  155.000;  371.000;  129.000
233.650; -212.600; -764.000; -834.000
233.794;  115.800;  438.000;  461.000
233.938; -149.300; -530.000; -362.000
234.081;  -17.200;  -93.000;   31.000
234.225; -131.800; -631.000; -539.000
234.368; -196.400; -773.000; -723.000
234.512;  -68.700; -385.000; -299.000
234.655; -148.400; -582.000; -555.000
234.798; -162.900; -493.000; -466.000
234.942; -247.800; -884.000;-1002.000
235.085; -137.000; -651.000; -443.000
235.229; -136.000; -405.000; -410.000
235.372;  -94.700; -247.000; -191.000
235.516;  -95.500; -397.000; -321.000
235.659;   43.800;   92.000;  121.000
235.802;   11.100;  -38.000;  -22.000
235.946;   56.600;  335.000;  215.000
236.089;   85.400;  126.000;  250.000
236.233;  124.100;  275.000;  298.000
236.376;  -53.500; -235.000; -378.000
236.519;  -70.700; -297.000; -319.000
236.663;  -20.000; -215.000; -117.000
236.806; -237.200;-1029.000; -999.000
236.949;  133.600;  543.000;  431.000
237.092;  174.700;  412.000;  391.000
237.236; -165.700; -589.000; -502.000
237.379;  160.000;  352.000;  428.000
237.522; -220.600; -879.000; -768.000
237.666;  -17.100; -271.000;   18.000
237.809; -232.100; -851.000; -823.000
237.952;   53.900;  469.000;  271.000
238.095; -110.400; -447.000; -442.000
238.238;  153.400;  688.000;  700.000
238.382;   38.600;  166.000;  103.000
238.525; -134.900; -598.000; -511.000
238.668; -257.800;-1060.000; -985.000
238.811; -124.600; -638.000; -643.000
238.954;  -95.900; -483.000; -334.000
239.097;  196.300;  617.000;  664.000
239.241;   97.300;  394.000;  326.000
239.384;  -37.200; -254.000; -214.000
239.527; -101.800; -424.000; -224.000
239.670; -309.900; -994.000;-1091.000
239.813; -228.200; -696.000; -658.000
239.956;  163.700;  579.000;  473.000
240.099; -212.400; -778.000; -725.000
240.242;  140.100;  428.000;  432.000
240.385;  104.400;  466.000;  450.000
240.528; -139.600; -706.000; -473.000
240.671;   43.600;  189.000;  134.000
240.814;  -51.400; -441.000; -158.000
240.957; -189.800; -767.000; -578.000
241.100; -196.900; -779.000; -755.000
241.243; -270.200;-1234.000; -893.000
241.386; -129.300; -508.000; -379.000
241.529; -155.200; -735.000; -547.000
241.672; -151.900; -566.000; -495.000
241.815; -199.700; -832.000; -808.000
241.958;  -46.400; -125.000; -182.000
242.101; -153.900; -545.000; -390.000
242.244;  -84.900; -270.000; -325.000
242.387;  -62.200; -304.000; -246.000
242.530;  121.100;  470.000;  134.000
242.673;  -26.800; -381.000; -309.000
242.815; -243.600; -925.000; -899.000
242.958; -120.700; -482.000; -381.000
243.101;   46.100;  132.000;  187.000
243.244; -126.200; -564.000; -521.000
243.387;  -90.500; -313.000; -316.000
243.530; -184.400; -657.000; -674.000
243.672;   -7.800;   43.000;  -92.000
243.815; -102.400; -355.000; -283.000
243.958;   14.200;   98.000;  -26.000
244.101;   40.500;   59.000;  -16.000
244.243;   22.900;  -47.000;  101.000
244.386; -210.900; -761.000; -630.000
244.529;  -65.100; -132.000; -139.000
244.672; -298.400;-1154.000; -951.000
244.814; -203.300; -621.000; -794.000
244.957;  -93.100; -380.000; -304.000
245.100; -146.200; -489.000; -489.000
245.242;  -95.900; -387.000; -374.000
245.385;   11.600;  -59.000;  -39.000
245.528; -223.700; -871.000; -705.000
245.670;  189.400;  612.000;  634.000
245.813; -190.600; -599.000; -547.000
245.956;  -74.000; -324.000; -275.000
246.098; -114.700; -508.000; -650.000
246.241;   50.900;  194.000;   48.000
246.383;   -4.300; -119.000;  -73.000
246.526; -156.800; -454.000; -525.000
246.669; -220.800; -889.000; -780.000
246.811;   36.800;  172.000;   -1.000
246.954; -117.400; -512.000; -426.000
247.096;  -36.400;  -84.000;   -6.000
247.239; -121.000; -482.000; -445.000
247.381; -142.500; -647.000; -488.000
247.524;  175.600;  645.000;  679.000
247.666;   -8.400;   58.000;   11.000
247.809; -209.000; -887.000; -691.000
247.951;  -54.400;  -75.000;  138.000
248.094;   70.500;  432.000;  308.000
248.236; -338.200;-1262.000;-1238.000
248.378;   10.100; -356.000;  -81.000
248.521;  -55.500; -334.000; -337.000
248.663;  -43.600; -236.000; -267.000
248.806;  -43.500; -300.000; -266.000
248.948; -186.900; -886.000; -763.000
249.090;  -97.100; -428.000; -398.000
249.233;  -66.000; -344.000; -381.000
249.375; -123.500; -474.000; -451.000
249.518;   -7.400;  -83.000; -133.000
249.660;   -7.100; -103.000;    3.000
249.802; -358.200;-1303.000;-1189.000
249.945; -126.300; -612.000; -540.000
250.087; -217.500; -834.000; -768.000
250.229;  -78.200; -362.000; -480.000
250.371; -109.500; -494.000; -439.000
250.514;  -84.100; -310.000; -244.000
250.656;  -95.300;   69.000;  102.000
250.798; -229.600; -849.000; -800.000
250.940;  -87.600; -322.000; -322.000
251.083;  -38.600; -335.000; -111.000
251.225;  153.000;  338.000;  310.000
251.367;  -95.800; -274.000; -373.000
251.509;  -42.000; -265.000; -210.000
251.651; -187.800; -731.000; -671.000
251.794;  143.100;  538.000;  632.000
251.936; -184.800; -821.000; -747.000
252.078; -122.700; -540.000; -461.000
252.220; -151.100; -645.000; -477.000
252.362;  162.400;  344.000;  462.000
252.504; -121.400; -677.000; -584.000
252.646; -197.400; -875.000; -722.000
252.788;   18.700;   14.000; -128.000
252.931;  -44.000; -257.000; -253.000
253.073;  -97.900; -376.000; -317.000
253.215;   -4.500;  141.000;  122.000
253.357;  -23.200;   82.000; -153.000
253.499;  -72.300; -374.000; -234.000
253.641; -172.400; -749.000; -594.000
253.783; -186.000; -609.000; -527.000
253.925; -181.500; -586.000; -591.000
254.067; -205.200; -744.000; -667.000
254.209;  -67.500; -391.000; -259.000
254.351; -227.900; -865.000; -883.000
254.493; -112.000; -441.000; -417.000
254.635; -224.500; -936.000; -818.000
254.777; -173.800; -752.000; -687.000
254.918; -131.200; -512.000; -430.000
255.060; -118.600; -551.000; -395.000
255.202;  -89.800; -473.000; -261.000
255.344; -163.800; -658.000; -455.000
255.486; -116.900; -471.000; -406.000
255.628; -239.100; -780.000; -781.000
255.770; -189.800; -676.000; -536.000
255.912; -111.100; -559.000; -468.000
256.053; -185.100; -730.000; -508.000
256.195;  305.700; 1008.000;  903.000
256.337; -167.300; -861.000; -595.000
256.479;  121.000;  532.000;  416.000
256.621;  -72.100; -394.000; -212.000
256.762; -188.500; -789.000; -742.000
256.904;  142.300;  485.000;  487.000
257.046;  -50.400; -381.000; -271.000
257.188;  -34.900; -351.000; -264.000
257.329; -135.300; -525.000; -464.000
257.471; -213.700; -939.000; -807.000
257.613; -121.400; -584.000; -498.000
257.755; -295.300;-1073.000; -982.000
257.896;  104.300;  286.000;  392.000
258.038; -131.100; -403.000; -352.000
258.180;  -78.100; -354.000; -279.000
258.321; -145.100; -581.000; -457.000
258.463;   -5.800;  -71.000;  133.000
258.605; -172.000; -562.000; -570.000
258.746; -189.100; -886.000; -772.000
258.888; -275.700;-1026.000;-1020.000
259.029;   50.600;  121.000;   -8.000
259.171; -156.100; -614.000; -550.000
259.313;   -8.900;  -49.000;  -47.000
259.454;  -98.500; -536.000; -414.000
259.596;  -76.300; -483.000; -390.000
259.737; -119.500; -590.000; -474.000
259.879;   88.200;  217.000;  311.000
260.020;  210.400;  901.000;  636.000
260.162;  -38.100; -146.000; -253.000
260.303; -192.100; -768.000; -687.000
260.445; -148.800; -609.000; -613.000
260.586;   85.800;  392.000;  157.000
260.728;  -86.700; -360.000; -248.000
260.869;  -86.900; -350.000; -343.000
261.011;  161.800;  706.000;  537.000
261.152;  -86.400; -479.000; -319.000
261.293; -136.200; -576.000; -595.000
261.435;  -14.300; -219.000; -184.000
261.576; -105.500; -455.000; -325.000
261.718;  168.400;  420.000;  470.000
261.859; -259.600; -940.000; -949.000
262.000; -241.200; -951.000;-1016.000
262.142;  -31.400;  -52.000;  -60.000
262.283; -201.500; -808.000; -691.000
262.424; -192.600; -666.000; -625.000
262.566; -285.200;-1161.000; -983.000
262.707; -218.200; -840.000; -830.000
262.848; -236.500; -769.000; -726.000
262.990;  -81.500; -362.000; -345.000
263.131;  212.400;  650.000;  681.000
263.272;  -25.400;  -61.000;  -41.000
263.413; -168.000; -589.000; -561.000
263.555; -115.600; -669.000; -143.000
263.696; -156.600; -550.000; -641.000
263.837; -110.400; -449.000; -551.000
263.978;   62.000;   -5.000;  -77.000
264.119;  -90.200; -283.000; -264.000
264.261; -191.800; -847.000; -630.000
264.402;   24.100;   33.000;   40.000
264.543; -110.200; -509.000; -524.000
264.684;   14.500;   61.000;  -50.000
264.825; -133.700; -816.000; -538.000
264.966;   -4.300;  -84.000;  -67.000
265.107; -218.000; -646.000; -670.000
265.248; -242.200; -825.000; -812.000
265.390;   33.400;  152.000;   -9.000
265.531;  -46.200; -238.000; -107.000
265.672; -140.700; -557.000; -630.000
265.813;  150.900;  563.000;  439.000
265.954; -255.800; -959.000; -940.000
266.095;  -24.100; -372.000; -322.000
266.236; -148.100; -686.000; -548.000
266.377;  -34.100; -243.000; -297.000
266.518;  -95.600; -619.000; -547.000
266.659;   71.600;  170.000;  268.000
266.800;   55.300;   83.000;   85.000
266.941; -137.400; -487.000; -478.000
267.082;   76.100;  354.000;   99.000
267.223;  -98.800; -344.000; -273.000
267.364; -192.900; -892.000; -686.000
267.504;  -24.500;    3.000;  135.000
267.645;   31.700;  160.000;   67.000
267.786;  -67.100; -147.000;  -86.000
267.927; -133.300; -473.000; -379.000
268.068;   -3.700; -186.000;  -61.000
268.209;  -34.000; -175.000; -413.000
268.350; -111.500; -388.000; -532.000
268.490; -121.800; -648.000; -521.000
268.631;   75.800;  127.000;  225.000
268.772; -204.000; -874.000; -647.000
268.913; -121.900; -328.000; -476.000
269.054;    8.700; -117.000;   12.000
269.194;  -92.600; -418.000; -402.000
269.335; -272.300;-1137.000;-1074.000
269.476;  -33.500;   33.000;  -35.000
269.617;  -47.600; -347.000; -392.000
269.757; -194.700; -713.000; -646.000
269.898; -186.900; -856.000; -613.000
270.039; -121.000; -415.000; -405.000
270.180; -262.800; -952.000; -816.000
270.320;  -70.700; -190.000; -250.000
