
Integration time [ms]: 100.000
Averaging Nr. [scans]: 40
Smoothing Nr. [pixels]: 0
Data measured with spectrometer [name]: 2101012U2
Wave   ;Sample   ;Dark     ;Reference
[nm]   ;[counts] ;[counts] ;[counts] 

197.733;   54.550;  516.000;  404.000
197.879;  -91.875; -610.000; -634.000
198.025;  -55.950; -475.000; -420.000
198.171;  -68.275; -602.000; -612.000
198.317;  -25.600; -401.000; -316.000
198.463;  -50.425; -655.000; -404.000
198.609;   18.225;  181.000; -137.000
198.755;  -70.675; -644.000; -410.000
198.901;  -58.600; -505.000; -424.000
199.047;  -61.200; -615.000; -488.000
199.193;  -42.675; -230.000; -468.000
199.339;  -34.825; -222.000; -369.000
199.485;   33.825;  330.000;  271.000
199.631;   18.125;  227.000;  310.000
199.777;  -59.525; -466.000; -398.000
199.923;  -75.325; -610.000; -424.000
200.069;    7.975; -141.000;  -58.000
200.215;   52.275;  128.000;  453.000
200.361;   38.725;  243.000;  477.000
200.507;  -69.350; -600.000; -373.000
200.653;  -27.525; -371.000; -194.000
200.798;  -17.825; -215.000; -125.000
200.944;   -5.275; -146.000;  -41.000
201.090;   51.925;   61.000;  222.000
201.236;    5.000; -116.000; -158.000
201.382;  141.725;  874.000;  903.000
201.528;    0.025;  -58.000;  -48.000
201.674;  -66.325; -386.000; -293.000
201.819;  -70.750; -540.000; -439.000
201.965;  -93.725; -699.000; -447.000
202.111;  -21.625; -273.000; -226.000
202.257;  -33.425; -250.000; -238.000
202.402;    9.750;   13.000;  -36.000
202.548;  -26.125; -169.000; -116.000
202.694;   70.725;  410.000; -183.000
202.840;  -79.850; -603.000; -531.000
202.985;  -70.900; -681.000; -639.000
203.131; -108.800; -832.000; -666.000
203.277;  -26.250; -199.000; -262.000
203.423;  -52.400; -434.000; -520.000
203.568;  -42.600; -462.000; -237.000
203.714;  -67.775; -535.000; -542.000
203.860;  -88.000; -682.000; -641.000
204.005;   21.700;  112.000;  167.000
204.151;   75.375;  561.000;  556.000
204.296;  -60.050; -354.000; -221.000
204.442;  -75.375; -600.000; -547.000
204.588;  -93.000; -592.000; -579.000
204.733;   13.100;  178.000;  168.000
204.879; -132.275;-1018.000; -822.000
205.025;    9.875;  -99.000;  126.000
205.170;    8.750;  -17.000;   94.000
205.316;   80.000;  438.000;  661.000
205.461;  -80.425; -698.000; -554.000
205.607;   91.675;  609.000;  665.000
205.752;  -83.800; -626.000; -551.000
205.898;  -57.500; -501.000; -391.000
206.043;  -51.600; -578.000; -506.000
206.189;  -44.175; -243.000; -285.000
206.334;   80.675;  554.000;  606.000
206.480;   85.800;  409.000;  239.000
206.625;  -74.000; -529.000; -552.000
206.771;  -44.550; -451.000; -373.000
206.916;  -42.575; -210.000; -537.000
207.062;  -82.900; -545.000; -591.000
207.207;  -64.700; -546.000; -443.000
207.353;   59.350;  185.000;  460.000
207.498;   20.200;  196.000;   85.000
207.643;  -59.375; -501.000; -370.000
207.789; -135.475;-1069.000; -910.000
207.934;  -93.000; -665.000; -713.000
208.080;  -16.750; -154.000;   66.000
208.225;   -1.375;  -22.000;  -57.000
208.370;  -74.850; -727.000; -619.000
208.516;  -81.525; -741.000; -487.000
208.661;  -20.050; -127.000;  -69.000
208.806;  -30.475; -165.000; -171.000
208.952; -136.850;-1044.000; -731.000
209.097;   80.375;  378.000;  349.000
209.242;  -42.925; -307.000; -382.000
209.387;   51.075;  392.000;  350.000
209.533;  -57.075; -321.000; -350.000
209.678;   81.200;  472.000;  543.000
209.823;  -52.725; -408.000; -310.000
209.969; -104.675; -860.000; -757.000
210.114; -112.225; -907.000; -719.000
210.259; -111.650; -939.000; -889.000
210.404;   -5.150; -171.000;  103.000
210.549;    8.225;  108.000;    3.000
210.695;  -27.250;   -3.000;  -95.000
210.840;   24.775;   94.000;   67.000
210.985;  -63.925; -484.000; -303.000
211.130;   61.100;  268.000;  406.000
211.275;   25.475;  207.000;  199.000
211.420;  -53.050; -300.000; -289.000
211.566;  -77.050; -536.000; -489.000
211.711;   20.425;  218.000;  157.000
211.856;  -59.875; -545.000; -519.000
212.001;   16.475;  151.000;   44.000
212.146;    9.275;  153.000;   49.000
212.291;  -31.575; -210.000; -186.000
212.436;  -23.100; -280.000;   -6.000
212.581;  -79.225; -685.000; -653.000
212.726;  -70.100; -487.000; -538.000
212.871;  -55.025; -552.000; -217.000
213.016; -149.600;-1172.000;-1029.000
213.161;   61.300;  406.000;  291.000
213.306;  -73.725; -435.000; -577.000
213.451;  -98.475; -778.000; -689.000
213.596;  -43.525; -455.000; -347.000
213.741;  -43.200; -448.000; -538.000
213.886;  -81.200; -498.000; -517.000
214.031;  -21.475; -294.000; -124.000
214.176;  -57.500; -408.000; -341.000
214.321;  -20.050; -296.000; -157.000
214.466;  -26.550; -163.000;  -43.000
214.611;   -6.325;  -61.000;  -10.000
214.756; -124.550; -948.000; -858.000
214.901;  -32.450; -388.000; -226.000
215.046; -120.525; -797.000; -825.000
215.191;   15.275;  128.000;   35.000
215.336;  -14.850; -157.000;  -19.000
215.480;  -68.050; -684.000; -505.000
215.625;  -18.525; -175.000;  -19.000
215.770;  -87.650; -757.000; -662.000
215.915;   -6.825;   -5.000;  -97.000
216.060;    9.675; -113.000;  -21.000
216.205; -102.125; -731.000; -779.000
216.349;  -81.400; -470.000; -533.000
216.494; -132.800; -939.000; -867.000
216.639; -123.975; -823.000; -888.000
216.784;  -87.775; -577.000; -525.000
216.929;   44.825;  392.000;  281.000
217.073;   -9.725; -244.000;  -31.000
217.218;   21.100;   78.000;  -47.000
217.363;  -84.550; -656.000; -618.000
217.507;  -90.100; -623.000; -588.000
217.652; -126.325; -845.000; -874.000
217.797;  -93.025; -708.000; -659.000
217.942; -107.950; -856.000; -720.000
218.086;   84.300;  608.000;  539.000
218.231;  -29.100; -174.000;  -26.000
218.376;  -51.275; -337.000; -229.000
218.520;    8.200;  -41.000;   96.000
218.665;  -33.875; -338.000; -204.000
218.810;  -41.200; -275.000; -233.000
218.954;   12.700;  201.000;   35.000
219.099; -111.625; -713.000; -963.000
219.243;  -70.600; -589.000; -554.000
219.388;  -24.825; -264.000; -136.000
219.532;  -12.325; -116.000; -116.000
219.677;  -80.075; -564.000; -521.000
219.822;    8.700;   33.000;   89.000
219.966;   12.275;   17.000;  -99.000
220.111;  -32.275; -328.000;  -40.000
220.255;  -94.350; -797.000; -750.000
220.400;  -23.525; -180.000; -146.000
220.544;  -75.875; -516.000; -450.000
220.689;  -66.675; -422.000; -451.000
220.833;  -19.025; -123.000;  -58.000
220.978;  -46.575; -393.000; -563.000
221.122;   13.700;  319.000;  307.000
221.267; -121.275; -906.000; -837.000
221.411;  -64.875; -478.000; -394.000
221.555;  -18.675; -104.000;  -23.000
221.700;  -57.500; -329.000; -222.000
221.844;   37.225;  255.000;  272.000
221.989;  -38.575; -328.000; -311.000
222.133;  -46.250; -289.000; -307.000
222.277;    1.050;    5.000;   78.000
222.422;   15.150;  227.000;  113.000
222.566;  -44.625; -381.000; -214.000
222.711;  -55.750; -414.000; -479.000
222.855;  -79.125; -643.000; -586.000
222.999;  -85.525; -642.000; -717.000
223.144;  -28.750; -195.000; -194.000
223.288;   49.150;  423.000;  251.000
223.432;   16.000;  184.000;  230.000
223.576;    3.500;  152.000;  -21.000
223.721;   41.900;  364.000;  273.000
223.865;  -63.375; -472.000; -475.000
224.009;  243.400; 1673.000; 1631.000
224.153;  -88.900; -660.000; -671.000
224.298;  -66.525; -531.000; -489.000
224.442;  -11.050;  -74.000;  -33.000
224.586;  -15.800; -169.000; -106.000
224.730; -108.675; -858.000; -670.000
224.875; -112.675; -739.000; -688.000
225.019;   22.550;  102.000;  188.000
225.163;   38.050;  208.000;  341.000
225.307;   21.900;   97.000;  -91.000
225.451;   46.125;  360.000;  481.000
225.595;   37.625;  264.000;  176.000
225.739;  -28.825; -170.000;  -94.000
225.884;    4.500;   86.000;    5.000
226.028; -103.175; -760.000; -626.000
226.172;  -38.000; -260.000; -273.000
226.316; -126.200; -941.000; -902.000
226.460;  -72.825; -645.000; -493.000
226.604;  -58.475; -406.000; -400.000
226.748; -111.950; -836.000; -733.000
226.892;  -26.150; -227.000; -181.000
227.036;  -54.375; -537.000; -447.000
227.180;  -61.100; -551.000; -375.000
227.324;  -77.750; -561.000; -580.000
227.468; -116.400; -819.000; -717.000
227.612;    8.400;  242.000;  -28.000
227.756;  -96.750; -845.000; -698.000
227.900;   55.900;  342.000;  441.000
228.044;  -60.775; -509.000; -290.000
228.188;   57.100;  448.000;  568.000
228.332;  -73.125; -546.000; -472.000
228.476;  -27.125; -223.000; -149.000
228.620;  -36.175; -210.000; -150.000
228.764;   67.325;  431.000;  349.000
228.908;  -14.725; -155.000;   30.000
229.052;  -75.025; -615.000; -528.000
229.195;  -17.000; -172.000;   13.000
229.339;  -17.325; -235.000; -305.000
229.483;  -32.900;    5.000; -162.000
229.627;    4.050; -156.000;  139.000
229.771;  -53.875; -218.000; -294.000
229.915;    2.900;  230.000;   79.000
230.059;  -94.325; -648.000; -663.000
230.202;  -46.000; -370.000; -317.000
230.346;  -17.300; -107.000;  107.000
230.490;  -70.150; -489.000; -521.000
230.634; -108.775; -736.000; -553.000
230.777;   76.200;  478.000;  509.000
230.921;  -65.350; -450.000; -359.000
231.065;  -40.950; -246.000; -286.000
231.209;   24.325;  261.000;  265.000
231.352;   17.650;   54.000;   40.000
231.496;   25.375;  568.000;  188.000
231.640;  -82.750; -693.000; -621.000
231.783;   53.775;  546.000;  525.000
231.927;  -63.000; -294.000; -365.000
232.071; -131.450; -962.000; -736.000
232.214; -120.050; -980.000; -764.000
232.358; -109.075; -683.000; -599.000
232.502;   -0.650;  -19.000;    7.000
232.645; -141.525;-1090.000; -927.000
232.789;  -31.250; -257.000; -218.000
232.933;  -41.100; -407.000; -224.000
233.076; -126.350;-1038.000; -897.000
233.220; -116.475; -752.000; -777.000
233.363;  -72.675; -669.000; -477.000
233.507;   50.950;  371.000;  129.000
233.650;  -98.275; -764.000; -834.000
233.794;   45.075;  438.000;  461.000
233.938;  -64.150; -530.000; -362.000
234.081;  -17.150;  -93.000;   31.000
234.225;  -80.475; -631.000; -539.000
234.368; -104.725; -773.000; -723.000
234.512;  -55.100; -385.000; -299.000
234.655; -102.075; -582.000; -555.000
234.798;  -80.575; -493.000; -466.000
234.942; -126.775; -884.000;-1002.000
235.085;  -70.025; -651.000; -443.000
235.229;  -75.550; -405.000; -410.000
235.372;  -49.425; -247.000; -191.000
235.516;  -72.225; -397.000; -321.000
235.659;   14.050;   92.000;  121.000
235.802;  -22.675;  -38.000;  -22.000
235.946;   20.175;  335.000;  215.000
236.089;   29.200;  126.000;  250.000
236.233;   49.325;  275.000;  298.000
236.376;  -61.425; -235.000; -378.000
236.519;  -54.425; -297.000; -319.000
236.663;  -26.900; -215.000; -117.000
236.806; -141.650;-1029.000; -999.000
236.949;   68.300;  543.000;  431.000
237.092;   56.850;  412.000;  391.000
237.236;  -91.275; -589.000; -502.000
237.379;   74.100;  352.000;  428.000
237.522; -115.925; -879.000; -768.000
237.666;  -13.050; -271.000;   18.000
237.809; -127.900; -851.000; -823.000
237.952;   34.050;  469.000;  271.000
238.095;  -66.975; -447.000; -442.000
238.238;   72.050;  688.000;  700.000
238.382;   -5.175;  166.000;  103.000
238.525;  -66.250; -598.000; -511.000
238.668; -145.200;-1060.000; -985.000
238.811;  -88.350; -638.000; -643.000
238.954;  -57.800; -483.000; -334.000
239.097;   99.400;  617.000;  664.000
239.241;   26.750;  394.000;  326.000
239.384;  -42.550; -254.000; -214.000
239.527;  -64.000; -424.000; -224.000
239.670; -157.475; -994.000;-1091.000
239.813; -126.125; -696.000; -658.000
239.956;   77.725;  579.000;  473.000
240.099; -120.925; -778.000; -725.000
240.242;   60.300;  428.000;  432.000
240.385;   32.625;  466.000;  450.000
240.528;  -69.300; -706.000; -473.000
240.671;   16.975;  189.000;  134.000
240.814;  -42.775; -441.000; -158.000
240.957;  -87.400; -767.000; -578.000
241.100; -110.625; -779.000; -755.000
241.243; -145.175;-1234.000; -893.000
241.386;  -70.300; -508.000; -379.000
241.529;  -80.375; -735.000; -547.000
241.672;  -67.775; -566.000; -495.000
241.815; -125.500; -832.000; -808.000
241.958;  -33.425; -125.000; -182.000
242.101;  -76.200; -545.000; -390.000
242.244;  -46.100; -270.000; -325.000
242.387;  -41.950; -304.000; -246.000
242.530;   55.200;  470.000;  134.000
242.673;  -60.050; -381.000; -309.000
242.815; -122.525; -925.000; -899.000
242.958;  -66.675; -482.000; -381.000
243.101;   10.425;  132.000;  187.000
243.244;  -87.300; -564.000; -521.000
243.387;  -58.925; -313.000; -316.000
243.530; -102.250; -657.000; -674.000
243.672;    7.525;   43.000;  -92.000
243.815;  -44.025; -355.000; -283.000
243.958;   -7.150;   98.000;  -26.000
244.101;    0.900;   59.000;  -16.000
244.243;   -9.900;  -47.000;  101.000
244.386; -107.650; -761.000; -630.000
244.529;  -35.200; -132.000; -139.000
244.672; -173.750;-1154.000; -951.000
244.814; -117.850; -621.000; -794.000
244.957;  -52.400; -380.000; -304.000
245.100;  -88.500; -489.000; -489.000
245.242;  -68.625; -387.000; -374.000
245.385;    9.850;  -59.000;  -39.000
245.528; -122.175; -871.000; -705.000
245.670;   87.400;  612.000;  634.000
245.813;  -92.250; -599.000; -547.000
245.956;  -41.175; -324.000; -275.000
246.098;  -87.125; -508.000; -650.000
246.241;   -9.475;  194.000;   48.000
246.383;  -26.275; -119.000;  -73.000
246.526;  -76.150; -454.000; -525.000
246.669; -121.775; -889.000; -780.000
246.811;   25.725;  172.000;   -1.000
246.954;  -72.200; -512.000; -426.000
247.096;  -25.150;  -84.000;   -6.000
247.239;  -70.475; -482.000; -445.000
247.381;  -83.625; -647.000; -488.000
247.524;   95.000;  645.000;  679.000
247.666;   -7.000;   58.000;   11.000
247.809; -125.700; -887.000; -691.000
247.951;  -16.900;  -75.000;  138.000
248.094;   30.050;  432.000;  308.000
248.236; -158.950;-1262.000;-1238.000
248.378;    8.225; -356.000;  -81.000
248.521;  -32.050; -334.000; -337.000
248.663;  -33.925; -236.000; -267.000
248.806;  -30.225; -300.000; -266.000
248.948;  -99.950; -886.000; -763.000
249.090;  -56.400; -428.000; -398.000
249.233;  -55.175; -344.000; -381.000
249.375;  -76.225; -474.000; -451.000
249.518;  -29.950;  -83.000; -133.000
249.660;  -13.625; -103.000;    3.000
249.802; -166.200;-1303.000;-1189.000
249.945;  -80.350; -612.000; -540.000
250.087; -127.550; -834.000; -768.000
250.229;  -52.375; -362.000; -480.000
250.371;  -72.400; -494.000; -439.000
250.514;  -40.175; -310.000; -244.000
250.656;  -74.750;   69.000;  102.000
250.798; -109.375; -849.000; -800.000
250.940;  -64.525; -322.000; -322.000
251.083;  -47.750; -335.000; -111.000
251.225;   63.800;  338.000;  310.000
251.367;  -47.900; -274.000; -373.000
251.509;  -30.275; -265.000; -210.000
251.651; -102.850; -731.000; -671.000
251.794;   58.375;  538.000;  632.000
251.936; -110.400; -821.000; -747.000
252.078;  -78.950; -540.000; -461.000
252.220;  -75.925; -645.000; -477.000
252.362;   68.100;  344.000;  462.000
252.504;  -78.675; -677.000; -584.000
252.646; -116.100; -875.000; -722.000
252.788;  -15.850;   14.000; -128.000
252.931;  -36.475; -257.000; -253.000
253.073;  -46.700; -376.000; -317.000
253.215;  -12.675;  141.000;  122.000
253.357;  -27.075;   82.000; -153.000
253.499;  -53.300; -374.000; -234.000
253.641;  -89.525; -749.000; -594.000
253.783; -100.875; -609.000; -527.000
253.925;  -94.925; -586.000; -591.000
254.067; -120.850; -744.000; -667.000
254.209;  -25.650; -391.000; -259.000
254.351; -139.375; -865.000; -883.000
254.493;  -79.925; -441.000; -417.000
254.635; -136.525; -936.000; -818.000
254.777;  -91.500; -752.000; -687.000
254.918;  -78.525; -512.000; -430.000
255.060;  -61.525; -551.000; -395.000
255.202;  -67.000; -473.000; -261.000
255.344;  -81.950; -658.000; -455.000
255.486;  -73.950; -471.000; -406.000
255.628; -123.575; -780.000; -781.000
255.770;  -79.575; -676.000; -536.000
255.912;  -72.000; -559.000; -468.000
256.053;  -90.250; -730.000; -508.000
256.195;  157.250; 1008.000;  903.000
256.337; -102.375; -861.000; -595.000
256.479;   61.550;  532.000;  416.000
256.621;  -49.950; -394.000; -212.000
256.762; -101.300; -789.000; -742.000
256.904;   45.000;  485.000;  487.000
257.046;  -50.425; -381.000; -271.000
257.188;  -54.725; -351.000; -264.000
257.329;  -73.425; -525.000; -464.000
257.471; -113.850; -939.000; -807.000
257.613;  -80.625; -584.000; -498.000
257.755; -146.275;-1073.000; -982.000
257.896;   26.475;  286.000;  392.000
258.038;  -82.000; -403.000; -352.000
258.180;  -45.400; -354.000; -279.000
258.321;  -94.050; -581.000; -457.000
258.463;  -21.075;  -71.000;  133.000
258.605;  -88.725; -562.000; -570.000
258.746; -111.975; -886.000; -772.000
258.888; -158.025;-1026.000;-1020.000
259.029;    5.350;  121.000;   -8.000
259.171;  -84.225; -614.000; -550.000
259.313;  -11.575;  -49.000;  -47.000
259.454;  -77.425; -536.000; -414.000
259.596;  -59.800; -483.000; -390.000
259.737;  -79.550; -590.000; -474.000
259.879;   47.075;  217.000;  311.000
260.020;   97.900;  901.000;  636.000
260.162;  -28.825; -146.000; -253.000
260.303; -112.825; -768.000; -687.000
260.445;  -83.975; -609.000; -613.000
260.586;   22.825;  392.000;  157.000
260.728;  -43.600; -360.000; -248.000
260.869; -121.150; -350.000; -343.000
261.011;   78.875;  706.000;  537.000
261.152;  -61.375; -479.000; -319.000
261.293;  -94.925; -576.000; -595.000
261.435;  -40.275; -219.000; -184.000
261.576;  -59.775; -455.000; -325.000
261.718;   57.175;  420.000;  470.000
261.859; -142.725; -940.000; -949.000
262.000; -142.350; -951.000;-1016.000
262.142;  -29.025;  -52.000;  -60.000
262.283; -123.300; -808.000; -691.000
262.424;  -86.500; -666.000; -625.000
262.566; -165.025;-1161.000; -983.000
262.707; -126.725; -840.000; -830.000
262.848; -125.175; -769.000; -726.000
262.990;  -52.200; -362.000; -345.000
263.131;   58.100;  650.000;  681.000
263.272;  -17.175;  -61.000;  -41.000
263.413;  -93.450; -589.000; -561.000
263.555;  -70.425; -669.000; -143.000
263.696;  -78.650; -550.000; -641.000
263.837;  -59.325; -449.000; -551.000
263.978;  -14.975;   -5.000;  -77.000
264.119;  -41.800; -283.000; -264.000
264.261; -118.875; -847.000; -630.000
264.402;   -1.675;   33.000;   40.000
264.543;  -80.000; -509.000; -524.000
264.684;  -17.150;   61.000;  -50.000
264.825;  -81.350; -816.000; -538.000
264.966;  -18.250;  -84.000;  -67.000
265.107; -105.225; -646.000; -670.000
265.248; -125.500; -825.000; -812.000
265.390;  -12.425;  152.000;   -9.000
265.531;  -31.600; -238.000; -107.000
265.672;  -99.350; -557.000; -630.000
265.813;   58.475;  563.000;  439.000
265.954; -146.175; -959.000; -940.000
266.095;  -24.675; -372.000; -322.000
266.236; -104.725; -686.000; -548.000
266.377;  -40.650; -243.000; -297.000
266.518;  -66.400; -619.000; -547.000
266.659;   21.075;  170.000;  268.000
266.800;   10.175;   83.000;   85.000
266.941;  -76.725; -487.000; -478.000
267.082;    6.250;  354.000;   99.000
267.223;  -50.950; -344.000; -273.000
267.364; -125.850; -892.000; -686.000
267.504;  -23.700;    3.000;  135.000
267.645;   -9.000;  160.000;   67.000
267.786;  -32.625; -147.000;  -86.000
267.927;  -86.075; -473.000; -379.000
268.068;  -30.800; -186.000;  -61.000
268.209;  -57.175; -175.000; -413.000
268.350;  -71.200; -388.000; -532.000
268.490;  -69.975; -648.000; -521.000
268.631;   30.375;  127.000;  225.000
268.772; -116.250; -874.000; -647.000
268.913;  -66.400; -328.000; -476.000
269.054;  -23.425; -117.000;   12.000
269.194;  -57.175; -418.000; -402.000
269.335; -149.650;-1137.000;-1074.000
269.476;  -10.725;   33.000;  -35.000
269.617;  -56.275; -347.000; -392.000
269.757;  -97.750; -713.000; -646.000
269.898; -113.125; -856.000; -613.000
270.039;  -66.725; -415.000; -405.000
270.180; -137.875; -952.000; -816.000
270.320;  -20.975; -190.000; -250.000
