
Integration time [ms]: 100.000
Averaging Nr. [scans]: 40
Smoothing Nr. [pixels]: 0
Data measured with spectrometer [name]: 2101012U2
Wave   ;Sample   ;Dark     ;Reference
[nm]   ;[counts] ;[counts] ;[counts] 

197.733;   54.350;  516.000;  404.000
197.879;  -81.925; -610.000; -634.000
198.025;  -41.425; -475.000; -420.000
198.171;  -74.725; -602.000; -612.000
198.317;  -15.400; -401.000; -316.000
198.463;  -62.575; -655.000; -404.000
198.609;   52.525;  181.000; -137.000
198.755;  -64.325; -644.000; -410.000
198.901;  -63.725; -505.000; -424.000
199.047;  -61.550; -615.000; -488.000
199.193;  -35.250; -230.000; -468.000
199.339;  -36.775; -222.000; -369.000
199.485;   44.125;  330.000;  271.000
199.631;   -1.925;  227.000;  310.000
199.777;  -50.150; -466.000; -398.000
199.923;  -57.525; -610.000; -424.000
200.069;   -9.500; -141.000;  -58.000
200.215;   55.950;  128.000;  453.000
200.361;   33.525;  243.000;  477.000
200.507;  -54.975; -600.000; -373.000
200.653;  -24.725; -371.000; -194.000
200.798;  -38.475; -215.000; -125.000
200.944;   -3.450; -146.000;  -41.000
201.090;   50.450;   61.000;  222.000
201.236;   -7.200; -116.000; -158.000
201.382;  124.300;  874.000;  903.000
201.528;   10.625;  -58.000;  -48.000
201.674;  -51.125; -386.000; -293.000
201.819;  -57.500; -540.000; -439.000
201.965;  -74.850; -699.000; -447.000
202.111;  -15.000; -273.000; -226.000
202.257;  -43.600; -250.000; -238.000
202.402;   17.975;   13.000;  -36.000
202.548;  -25.775; -169.000; -116.000
202.694;   81.525;  410.000; -183.000
202.840;  -71.100; -603.000; -531.000
202.985;  -64.725; -681.000; -639.000
203.131; -107.575; -832.000; -666.000
203.277;  -17.475; -199.000; -262.000
203.423;  -63.525; -434.000; -520.000
203.568;  -30.200; -462.000; -237.000
203.714;  -59.200; -535.000; -542.000
203.860;  -74.425; -682.000; -641.000
204.005;   11.025;  112.000;  167.000
204.151;   76.875;  561.000;  556.000
204.296;  -36.050; -354.000; -221.000
204.442;  -72.675; -600.000; -547.000
204.588;  -83.325; -592.000; -579.000
204.733;    9.125;  178.000;  168.000
204.879; -126.300;-1018.000; -822.000
205.025;    8.550;  -99.000;  126.000
205.170;    2.850;  -17.000;   94.000
205.316;   87.775;  438.000;  661.000
205.461;  -76.475; -698.000; -554.000
205.607;   80.975;  609.000;  665.000
205.752;  -76.650; -626.000; -551.000
205.898;  -43.725; -501.000; -391.000
206.043;  -77.400; -578.000; -506.000
206.189;  -44.800; -243.000; -285.000
206.334;   74.525;  554.000;  606.000
206.480;   62.025;  409.000;  239.000
206.625;  -93.175; -529.000; -552.000
206.771;  -44.275; -451.000; -373.000
206.916;  -27.800; -210.000; -537.000
207.062;  -59.450; -545.000; -591.000
207.207;  -55.200; -546.000; -443.000
207.353;   48.325;  185.000;  460.000
207.498;    8.050;  196.000;   85.000
207.643;  -42.750; -501.000; -370.000
207.789; -104.925;-1069.000; -910.000
207.934;  -92.975; -665.000; -713.000
208.080;  -16.650; -154.000;   66.000
208.225;    7.125;  -22.000;  -57.000
208.370;  -72.650; -727.000; -619.000
208.516;  -74.875; -741.000; -487.000
208.661;  -29.050; -127.000;  -69.000
208.806;  -20.475; -165.000; -171.000
208.952; -119.950;-1044.000; -731.000
209.097;   67.100;  378.000;  349.000
209.242;  -42.850; -307.000; -382.000
209.387;   71.450;  392.000;  350.000
209.533;  -58.875; -321.000; -350.000
209.678;   72.125;  472.000;  543.000
209.823;  -47.000; -408.000; -310.000
209.969;  -91.250; -860.000; -757.000
210.114;  -98.550; -907.000; -719.000
210.259; -105.775; -939.000; -889.000
210.404;   -1.150; -171.000;  103.000
210.549;   14.775;  108.000;    3.000
210.695;  -19.475;   -3.000;  -95.000
210.840;   35.900;   94.000;   67.000
210.985;  -51.625; -484.000; -303.000
211.130;   64.625;  268.000;  406.000
211.275;    6.575;  207.000;  199.000
211.420;  -42.350; -300.000; -289.000
211.566;  -79.500; -536.000; -489.000
211.711;   24.175;  218.000;  157.000
211.856;  -65.550; -545.000; -519.000
212.001;    7.275;  151.000;   44.000
212.146;   21.100;  153.000;   49.000
212.291;  -24.500; -210.000; -186.000
212.436;  -28.500; -280.000;   -6.000
212.581;  -78.450; -685.000; -653.000
212.726;  -75.300; -487.000; -538.000
212.871;  -45.275; -552.000; -217.000
213.016; -145.125;-1172.000;-1029.000
213.161;   61.475;  406.000;  291.000
213.306;  -78.350; -435.000; -577.000
213.451;  -91.275; -778.000; -689.000
213.596;  -41.725; -455.000; -347.000
213.741;  -43.575; -448.000; -538.000
213.886;  -79.075; -498.000; -517.000
214.031;  -26.350; -294.000; -124.000
214.176;  -45.325; -408.000; -341.000
214.321;   -8.500; -296.000; -157.000
214.466;  -28.900; -163.000;  -43.000
214.611;    9.975;  -61.000;  -10.000
214.756; -113.250; -948.000; -858.000
214.901;  -21.200; -388.000; -226.000
215.046; -107.425; -797.000; -825.000
215.191;   23.625;  128.000;   35.000
215.336;  -18.450; -157.000;  -19.000
215.480;  -69.200; -684.000; -505.000
215.625;  -25.950; -175.000;  -19.000
215.770;  -85.500; -757.000; -662.000
215.915;    0.275;   -5.000;  -97.000
216.060;   -5.025; -113.000;  -21.000
216.205; -103.850; -731.000; -779.000
216.349;  -72.625; -470.000; -533.000
216.494; -130.000; -939.000; -867.000
216.639; -108.350; -823.000; -888.000
216.784;  -99.675; -577.000; -525.000
216.929;   53.575;  392.000;  281.000
217.073;  -12.325; -244.000;  -31.000
217.218;   13.275;   78.000;  -47.000
217.363;  -95.075; -656.000; -618.000
217.507;  -82.625; -623.000; -588.000
217.652; -119.475; -845.000; -874.000
217.797;  -81.950; -708.000; -659.000
217.942; -111.775; -856.000; -720.000
218.086;   85.000;  608.000;  539.000
218.231;  -10.725; -174.000;  -26.000
218.376;  -25.225; -337.000; -229.000
218.520;   -3.775;  -41.000;   96.000
218.665;  -34.275; -338.000; -204.000
218.810;  -41.700; -275.000; -233.000
218.954;   20.000;  201.000;   35.000
219.099; -111.950; -713.000; -963.000
219.243;  -72.225; -589.000; -554.000
219.388;  -26.375; -264.000; -136.000
219.532;   -2.150; -116.000; -116.000
219.677;  -65.600; -564.000; -521.000
219.822;    9.450;   33.000;   89.000
219.966;   13.275;   17.000;  -99.000
220.111;  -28.875; -328.000;  -40.000
220.255;  -82.400; -797.000; -750.000
220.400;  -14.000; -180.000; -146.000
220.544;  -71.675; -516.000; -450.000
220.689;  -54.700; -422.000; -451.000
220.833;  -20.725; -123.000;  -58.000
220.978;  -49.975; -393.000; -563.000
221.122;   16.725;  319.000;  307.000
221.267; -104.425; -906.000; -837.000
221.411;  -71.650; -478.000; -394.000
221.555;    8.100; -104.000;  -23.000
221.700;  -47.700; -329.000; -222.000
221.844;   42.000;  255.000;  272.000
221.989;  -53.700; -328.000; -311.000
222.133;  -25.525; -289.000; -307.000
222.277;   -7.700;    5.000;   78.000
222.422;   20.775;  227.000;  113.000
222.566;  -43.650; -381.000; -214.000
222.711;  -51.800; -414.000; -479.000
222.855;  -79.550; -643.000; -586.000
222.999;  -79.425; -642.000; -717.000
223.144;  -20.500; -195.000; -194.000
223.288;   60.575;  423.000;  251.000
223.432;   30.725;  184.000;  230.000
223.576;   21.125;  152.000;  -21.000
223.721;   37.425;  364.000;  273.000
223.865;  -60.600; -472.000; -475.000
224.009;  216.400; 1673.000; 1631.000
224.153;  -77.300; -660.000; -671.000
224.298;  -74.200; -531.000; -489.000
224.442;  -18.300;  -74.000;  -33.000
224.586;  -14.450; -169.000; -106.000
224.730;  -93.275; -858.000; -670.000
224.875; -103.550; -739.000; -688.000
225.019;   14.400;  102.000;  188.000
225.163;   45.975;  208.000;  341.000
225.307;   19.425;   97.000;  -91.000
225.451;   31.825;  360.000;  481.000
225.595;   41.675;  264.000;  176.000
225.739;  -12.850; -170.000;  -94.000
225.884;   -1.950;   86.000;    5.000
226.028; -100.450; -760.000; -626.000
226.172;  -27.225; -260.000; -273.000
226.316; -102.925; -941.000; -902.000
226.460;  -55.475; -645.000; -493.000
226.604;  -40.625; -406.000; -400.000
226.748;  -96.775; -836.000; -733.000
226.892;  -32.075; -227.000; -181.000
227.036;  -36.475; -537.000; -447.000
227.180;  -56.400; -551.000; -375.000
227.324;  -68.525; -561.000; -580.000
227.468; -115.475; -819.000; -717.000
227.612;    7.050;  242.000;  -28.000
227.756; -101.525; -845.000; -698.000
227.900;   62.275;  342.000;  441.000
228.044;  -61.625; -509.000; -290.000
228.188;   57.500;  448.000;  568.000
228.332;  -88.725; -546.000; -472.000
228.476;  -17.375; -223.000; -149.000
228.620;  -35.250; -210.000; -150.000
228.764;   84.700;  431.000;  349.000
228.908;  -26.450; -155.000;   30.000
229.052;  -58.825; -615.000; -528.000
229.195;  -16.250; -172.000;   13.000
229.339;  -21.475; -235.000; -305.000
229.483;  -32.300;    5.000; -162.000
229.627;   -9.175; -156.000;  139.000
229.771;  -47.125; -218.000; -294.000
229.915;   26.250;  230.000;   79.000
230.059;  -89.875; -648.000; -663.000
230.202;  -42.700; -370.000; -317.000
230.346;  -30.150; -107.000;  107.000
230.490;  -59.300; -489.000; -521.000
230.634;  -97.675; -736.000; -553.000
230.777;   77.950;  478.000;  509.000
230.921;  -60.475; -450.000; -359.000
231.065;  -31.850; -246.000; -286.000
231.209;   24.400;  261.000;  265.000
231.352;   13.525;   54.000;   40.000
231.496;   16.675;  568.000;  188.000
231.640;  -85.600; -693.000; -621.000
231.783;   57.825;  546.000;  525.000
231.927;  -29.925; -294.000; -365.000
232.071; -103.350; -962.000; -736.000
232.214; -109.375; -980.000; -764.000
232.358;  -96.125; -683.000; -599.000
232.502;   20.675;  -19.000;    7.000
232.645; -137.300;-1090.000; -927.000
232.789;  -24.025; -257.000; -218.000
232.933;  -46.375; -407.000; -224.000
233.076; -118.400;-1038.000; -897.000
233.220; -112.225; -752.000; -777.000
233.363;  -63.225; -669.000; -477.000
233.507;   54.075;  371.000;  129.000
233.650;  -96.325; -764.000; -834.000
233.794;   37.000;  438.000;  461.000
233.938;  -62.050; -530.000; -362.000
234.081;  -13.900;  -93.000;   31.000
234.225;  -75.225; -631.000; -539.000
234.368; -108.825; -773.000; -723.000
234.512;  -40.600; -385.000; -299.000
234.655;  -78.200; -582.000; -555.000
234.798;  -56.100; -493.000; -466.000
234.942; -120.325; -884.000;-1002.000
235.085;  -71.650; -651.000; -443.000
235.229;  -64.775; -405.000; -410.000
235.372;  -45.050; -247.000; -191.000
235.516;  -51.825; -397.000; -321.000
235.659;    9.875;   92.000;  121.000
235.802;   -7.700;  -38.000;  -22.000
235.946;   41.450;  335.000;  215.000
236.089;   31.275;  126.000;  250.000
236.233;   53.100;  275.000;  298.000
236.376;  -63.275; -235.000; -378.000
236.519;  -36.050; -297.000; -319.000
236.663;  -14.150; -215.000; -117.000
236.806; -134.750;-1029.000; -999.000
236.949;   42.600;  543.000;  431.000
237.092;   56.825;  412.000;  391.000
237.236;  -88.350; -589.000; -502.000
237.379;   56.925;  352.000;  428.000
237.522; -127.200; -879.000; -768.000
237.666;  -14.850; -271.000;   18.000
237.809; -117.650; -851.000; -823.000
237.952;   38.675;  469.000;  271.000
238.095;  -69.100; -447.000; -442.000
238.238;   84.500;  688.000;  700.000
238.382;  -12.350;  166.000;  103.000
238.525;  -84.275; -598.000; -511.000
238.668; -141.900;-1060.000; -985.000
238.811;  -82.500; -638.000; -643.000
238.954;  -56.675; -483.000; -334.000
239.097;   82.475;  617.000;  664.000
239.241;   16.625;  394.000;  326.000
239.384;  -20.100; -254.000; -214.000
239.527;  -62.000; -424.000; -224.000
239.670; -131.075; -994.000;-1091.000
239.813; -100.825; -696.000; -658.000
239.956;   78.175;  579.000;  473.000
240.099; -103.775; -778.000; -725.000
240.242;   55.825;  428.000;  432.000
240.385;   22.275;  466.000;  450.000
240.528;  -50.275; -706.000; -473.000
240.671;   11.900;  189.000;  134.000
240.814;  -47.350; -441.000; -158.000
240.957;  -87.150; -767.000; -578.000
241.100;  -87.425; -779.000; -755.000
241.243; -140.775;-1234.000; -893.000
241.386;  -70.050; -508.000; -379.000
241.529;  -90.100; -735.000; -547.000
241.672;  -52.925; -566.000; -495.000
241.815; -122.375; -832.000; -808.000
241.958;  -34.900; -125.000; -182.000
242.101;  -83.925; -545.000; -390.000
242.244;  -39.225; -270.000; -325.000
242.387;  -32.450; -304.000; -246.000
242.530;   58.375;  470.000;  134.000
242.673;  -38.600; -381.000; -309.000
242.815; -105.350; -925.000; -899.000
242.958;  -63.650; -482.000; -381.000
243.101;   13.525;  132.000;  187.000
243.244;  -78.225; -564.000; -521.000
243.387;  -44.650; -313.000; -316.000
243.530;  -85.925; -657.000; -674.000
243.672;    9.600;   43.000;  -92.000
243.815;  -64.950; -355.000; -283.000
243.958;   -4.925;   98.000;  -26.000
244.101;    8.200;   59.000;  -16.000
244.243;   -6.175;  -47.000;  101.000
244.386; -110.750; -761.000; -630.000
244.529;  -22.050; -132.000; -139.000
244.672; -152.900;-1154.000; -951.000
244.814; -104.800; -621.000; -794.000
244.957;  -33.700; -380.000; -304.000
245.100;  -78.200; -489.000; -489.000
245.242;  -56.875; -387.000; -374.000
245.385;    1.350;  -59.000;  -39.000
245.528; -118.675; -871.000; -705.000
245.670;   83.400;  612.000;  634.000
245.813;  -90.150; -599.000; -547.000
245.956;  -24.050; -324.000; -275.000
246.098;  -74.900; -508.000; -650.000
246.241;   17.775;  194.000;   48.000
246.383;  -12.150; -119.000;  -73.000
246.526;  -70.400; -454.000; -525.000
246.669; -114.225; -889.000; -780.000
246.811;   28.675;  172.000;   -1.000
246.954;  -46.175; -512.000; -426.000
247.096;   -6.900;  -84.000;   -6.000
247.239;  -60.425; -482.000; -445.000
247.381;  -60.475; -647.000; -488.000
247.524;  100.200;  645.000;  679.000
247.666;    1.000;   58.000;   11.000
247.809; -111.200; -887.000; -691.000
247.951;  -23.250;  -75.000;  138.000
248.094;   34.525;  432.000;  308.000
248.236; -154.700;-1262.000;-1238.000
248.378;   16.750; -356.000;  -81.000
248.521;  -10.450; -334.000; -337.000
248.663;  -34.900; -236.000; -267.000
248.806;  -21.275; -300.000; -266.000
248.948;  -95.425; -886.000; -763.000
249.090;  -31.775; -428.000; -398.000
249.233;  -50.025; -344.000; -381.000
249.375;  -72.875; -474.000; -451.000
249.518;  -16.275;  -83.000; -133.000
249.660;    2.850; -103.000;    3.000
249.802; -169.625;-1303.000;-1189.000
249.945;  -75.975; -612.000; -540.000
250.087; -112.350; -834.000; -768.000
250.229;  -42.975; -362.000; -480.000
250.371;  -73.775; -494.000; -439.000
250.514;  -44.250; -310.000; -244.000
250.656;   -2.225;   69.000;  102.000
250.798; -106.875; -849.000; -800.000
250.940;  -62.400; -322.000; -322.000
251.083;  -18.450; -335.000; -111.000
251.225;   49.750;  338.000;  310.000
251.367;  -42.850; -274.000; -373.000
251.509;  -38.025; -265.000; -210.000
251.651;  -82.525; -731.000; -671.000
251.794;   45.525;  538.000;  632.000
251.936; -106.925; -821.000; -747.000
252.078;  -79.100; -540.000; -461.000
252.220;  -53.525; -645.000; -477.000
252.362;   87.325;  344.000;  462.000
252.504;  -57.450; -677.000; -584.000
252.646; -114.525; -875.000; -722.000
252.788;    0.275;   14.000; -128.000
252.931;  -27.075; -257.000; -253.000
253.073;  -36.250; -376.000; -317.000
253.215;   -5.725;  141.000;  122.000
253.357;  -12.000;   82.000; -153.000
253.499;  -52.375; -374.000; -234.000
253.641;  -74.900; -749.000; -594.000
253.783;  -90.975; -609.000; -527.000
253.925;  -81.200; -586.000; -591.000
254.067; -114.125; -744.000; -667.000
254.209;  -28.725; -391.000; -259.000
254.351; -125.250; -865.000; -883.000
254.493;  -51.000; -441.000; -417.000
254.635; -140.550; -936.000; -818.000
254.777;  -86.225; -752.000; -687.000
254.918;  -68.000; -512.000; -430.000
255.060;  -56.950; -551.000; -395.000
255.202;  -62.700; -473.000; -261.000
255.344;  -82.900; -658.000; -455.000
255.486;  -67.325; -471.000; -406.000
255.628; -108.300; -780.000; -781.000
255.770;  -83.175; -676.000; -536.000
255.912;  -60.550; -559.000; -468.000
256.053;  -96.300; -730.000; -508.000
256.195;  142.075; 1008.000;  903.000
256.337; -100.525; -861.000; -595.000
256.479;   48.475;  532.000;  416.000
256.621;  -46.500; -394.000; -212.000
256.762;  -86.275; -789.000; -742.000
256.904;   38.900;  485.000;  487.000
257.046;  -42.675; -381.000; -271.000
257.188;  -55.050; -351.000; -264.000
257.329;  -84.500; -525.000; -464.000
257.471;  -99.475; -939.000; -807.000
257.613;  -55.575; -584.000; -498.000
257.755; -142.200;-1073.000; -982.000
257.896;   39.875;  286.000;  392.000
258.038;  -75.275; -403.000; -352.000
258.180;  -33.850; -354.000; -279.000
258.321;  -89.700; -581.000; -457.000
258.463;   -6.200;  -71.000;  133.000
258.605; -103.500; -562.000; -570.000
258.746;  -94.300; -886.000; -772.000
258.888; -154.950;-1026.000;-1020.000
259.029;   17.325;  121.000;   -8.000
259.171;  -79.475; -614.000; -550.000
259.313;   -3.550;  -49.000;  -47.000
259.454;  -62.950; -536.000; -414.000
259.596;  -52.425; -483.000; -390.000
259.737;  -66.950; -590.000; -474.000
259.879;   43.650;  217.000;  311.000
260.020;   88.450;  901.000;  636.000
260.162;  -26.175; -146.000; -253.000
260.303; -108.150; -768.000; -687.000
260.445;  -73.950; -609.000; -613.000
260.586;   25.575;  392.000;  157.000
260.728;  -41.325; -360.000; -248.000
260.869; -122.275; -350.000; -343.000
261.011;   62.400;  706.000;  537.000
261.152;  -68.775; -479.000; -319.000
261.293;  -78.700; -576.000; -595.000
261.435;  -32.350; -219.000; -184.000
261.576;  -51.875; -455.000; -325.000
261.718;   64.125;  420.000;  470.000
261.859; -117.750; -940.000; -949.000
262.000; -126.425; -951.000;-1016.000
262.142;  -25.025;  -52.000;  -60.000
262.283; -111.150; -808.000; -691.000
262.424;  -86.850; -666.000; -625.000
262.566; -142.700;-1161.000; -983.000
262.707; -103.300; -840.000; -830.000
262.848; -127.075; -769.000; -726.000
262.990;  -41.750; -362.000; -345.000
263.131;   79.750;  650.000;  681.000
263.272;   -2.175;  -61.000;  -41.000
263.413;  -84.675; -589.000; -561.000
263.555;  -65.650; -669.000; -143.000
263.696;  -94.475; -550.000; -641.000
263.837;  -55.325; -449.000; -551.000
263.978;   -5.250;   -5.000;  -77.000
264.119;  -35.125; -283.000; -264.000
264.261; -120.625; -847.000; -630.000
264.402;    8.125;   33.000;   40.000
264.543;  -79.375; -509.000; -524.000
264.684;  -10.500;   61.000;  -50.000
264.825;  -71.850; -816.000; -538.000
264.966;  -16.850;  -84.000;  -67.000
265.107; -124.625; -646.000; -670.000
265.248; -116.250; -825.000; -812.000
265.390;   -6.075;  152.000;   -9.000
265.531;  -11.575; -238.000; -107.000
265.672;  -83.000; -557.000; -630.000
265.813;   57.850;  563.000;  439.000
265.954; -143.550; -959.000; -940.000
266.095;  -19.950; -372.000; -322.000
266.236;  -92.725; -686.000; -548.000
266.377;  -38.850; -243.000; -297.000
266.518;  -67.450; -619.000; -547.000
266.659;   19.850;  170.000;  268.000
266.800;   17.075;   83.000;   85.000
266.941;  -82.950; -487.000; -478.000
267.082;   13.675;  354.000;   99.000
267.223;  -51.550; -344.000; -273.000
267.364; -113.225; -892.000; -686.000
267.504;  -16.625;    3.000;  135.000
267.645;  -16.775;  160.000;   67.000
267.786;  -30.475; -147.000;  -86.000
267.927;  -54.900; -473.000; -379.000
268.068;  -15.625; -186.000;  -61.000
268.209;  -46.650; -175.000; -413.000
268.350;  -64.600; -388.000; -532.000
268.490;  -75.850; -648.000; -521.000
268.631;   41.850;  127.000;  225.000
268.772; -107.875; -874.000; -647.000
268.913;  -55.325; -328.000; -476.000
269.054;   -2.700; -117.000;   12.000
269.194;  -43.200; -418.000; -402.000
269.335; -150.550;-1137.000;-1074.000
269.476;  -14.300;   33.000;  -35.000
269.617;  -45.375; -347.000; -392.000
269.757;  -66.275; -713.000; -646.000
269.898; -110.350; -856.000; -613.000
270.039;  -51.250; -415.000; -405.000
270.180; -118.750; -952.000; -816.000
270.320;   -4.575; -190.000; -250.000
