
Integration time [ms]: 100.000
Averaging Nr. [scans]: 40
Smoothing Nr. [pixels]: 0
Data measured with spectrometer [name]: 2101012U2
Wave   ;Sample   ;Dark     ;Reference
[nm]   ;[counts] ;[counts] ;[counts] 

197.733;   62.750;  516.000;  404.000
197.879;  -81.000; -610.000; -634.000
198.025;  -59.775; -475.000; -420.000
198.171;  -81.950; -602.000; -612.000
198.317;  -40.075; -401.000; -316.000
198.463;  -64.150; -655.000; -404.000
198.609;   22.425;  181.000; -137.000
198.755;  -67.775; -644.000; -410.000
198.901;  -65.950; -505.000; -424.000
199.047;  -58.375; -615.000; -488.000
199.193;  -47.800; -230.000; -468.000
199.339;  -41.200; -222.000; -369.000
199.485;   31.025;  330.000;  271.000
199.631;   12.325;  227.000;  310.000
199.777;  -44.175; -466.000; -398.000
199.923;  -69.700; -610.000; -424.000
200.069;  -10.850; -141.000;  -58.000
200.215;   51.800;  128.000;  453.000
200.361;   46.250;  243.000;  477.000
200.507;  -57.075; -600.000; -373.000
200.653;  -27.000; -371.000; -194.000
200.798;  -29.825; -215.000; -125.000
200.944;   -2.875; -146.000;  -41.000
201.090;   38.025;   61.000;  222.000
201.236;   14.500; -116.000; -158.000
201.382;  118.950;  874.000;  903.000
201.528;   13.500;  -58.000;  -48.000
201.674;  -42.625; -386.000; -293.000
201.819;  -62.750; -540.000; -439.000
201.965;  -78.950; -699.000; -447.000
202.111;  -28.475; -273.000; -226.000
202.257;  -41.950; -250.000; -238.000
202.402;    4.250;   13.000;  -36.000
202.548;  -22.300; -169.000; -116.000
202.694;   87.075;  410.000; -183.000
202.840;  -68.175; -603.000; -531.000
202.985;  -71.950; -681.000; -639.000
203.131; -106.675; -832.000; -666.000
203.277;  -33.050; -199.000; -262.000
203.423;  -51.075; -434.000; -520.000
203.568;  -47.475; -462.000; -237.000
203.714;  -59.175; -535.000; -542.000
203.860;  -84.775; -682.000; -641.000
204.005;   11.775;  112.000;  167.000
204.151;   85.525;  561.000;  556.000
204.296;  -53.325; -354.000; -221.000
204.442;  -75.150; -600.000; -547.000
204.588;  -78.525; -592.000; -579.000
204.733;   20.700;  178.000;  168.000
204.879; -137.675;-1018.000; -822.000
205.025;   15.175;  -99.000;  126.000
205.170;   -9.950;  -17.000;   94.000
205.316;   69.675;  438.000;  661.000
205.461;  -82.450; -698.000; -554.000
205.607;   89.575;  609.000;  665.000
205.752;  -76.775; -626.000; -551.000
205.898;  -53.800; -501.000; -391.000
206.043;  -58.175; -578.000; -506.000
206.189;  -47.725; -243.000; -285.000
206.334;   74.350;  554.000;  606.000
206.480;   71.500;  409.000;  239.000
206.625;  -80.575; -529.000; -552.000
206.771;  -48.025; -451.000; -373.000
206.916;  -40.325; -210.000; -537.000
207.062;  -80.575; -545.000; -591.000
207.207;  -64.650; -546.000; -443.000
207.353;   49.575;  185.000;  460.000
207.498;    7.750;  196.000;   85.000
207.643;  -57.350; -501.000; -370.000
207.789; -132.700;-1069.000; -910.000
207.934;  -83.000; -665.000; -713.000
208.080;  -28.225; -154.000;   66.000
208.225;    3.325;  -22.000;  -57.000
208.370;  -82.900; -727.000; -619.000
208.516;  -74.825; -741.000; -487.000
208.661;  -33.025; -127.000;  -69.000
208.806;  -24.700; -165.000; -171.000
208.952; -134.850;-1044.000; -731.000
209.097;   72.225;  378.000;  349.000
209.242;  -49.500; -307.000; -382.000
209.387;   73.425;  392.000;  350.000
209.533;  -45.850; -321.000; -350.000
209.678;   75.150;  472.000;  543.000
209.823;  -57.200; -408.000; -310.000
209.969;  -97.600; -860.000; -757.000
210.114;  -98.775; -907.000; -719.000
210.259; -115.875; -939.000; -889.000
210.404;  -12.975; -171.000;  103.000
210.549;    6.575;  108.000;    3.000
210.695;  -26.825;   -3.000;  -95.000
210.840;   10.375;   94.000;   67.000
210.985;  -67.575; -484.000; -303.000
211.130;   66.425;  268.000;  406.000
211.275;   17.775;  207.000;  199.000
211.420;  -49.000; -300.000; -289.000
211.566;  -73.950; -536.000; -489.000
211.711;   25.625;  218.000;  157.000
211.856;  -57.450; -545.000; -519.000
212.001;    7.125;  151.000;   44.000
212.146;   20.875;  153.000;   49.000
212.291;  -29.975; -210.000; -186.000
212.436;  -31.650; -280.000;   -6.000
212.581;  -94.550; -685.000; -653.000
212.726;  -79.075; -487.000; -538.000
212.871;  -45.675; -552.000; -217.000
213.016; -162.075;-1172.000;-1029.000
213.161;   72.325;  406.000;  291.000
213.306;  -78.025; -435.000; -577.000
213.451; -100.300; -778.000; -689.000
213.596;  -43.575; -455.000; -347.000
213.741;  -56.125; -448.000; -538.000
213.886;  -88.300; -498.000; -517.000
214.031;  -29.825; -294.000; -124.000
214.176;  -40.350; -408.000; -341.000
214.321;  -17.875; -296.000; -157.000
214.466;  -21.350; -163.000;  -43.000
214.611;   -7.800;  -61.000;  -10.000
214.756; -116.225; -948.000; -858.000
214.901;  -31.475; -388.000; -226.000
215.046; -130.550; -797.000; -825.000
215.191;   15.600;  128.000;   35.000
215.336;  -17.850; -157.000;  -19.000
215.480;  -72.150; -684.000; -505.000
215.625;  -24.825; -175.000;  -19.000
215.770;  -90.550; -757.000; -662.000
215.915;   -3.000;   -5.000;  -97.000
216.060;    4.050; -113.000;  -21.000
216.205; -109.075; -731.000; -779.000
216.349;  -83.525; -470.000; -533.000
216.494; -135.200; -939.000; -867.000
216.639; -126.300; -823.000; -888.000
216.784;  -85.450; -577.000; -525.000
216.929;   52.275;  392.000;  281.000
217.073;  -11.800; -244.000;  -31.000
217.218;    1.275;   78.000;  -47.000
217.363;  -93.775; -656.000; -618.000
217.507;  -76.050; -623.000; -588.000
217.652; -118.225; -845.000; -874.000
217.797;  -93.775; -708.000; -659.000
217.942; -111.750; -856.000; -720.000
218.086;   77.300;  608.000;  539.000
218.231;  -30.950; -174.000;  -26.000
218.376;  -32.800; -337.000; -229.000
218.520;   -4.675;  -41.000;   96.000
218.665;  -27.825; -338.000; -204.000
218.810;  -45.575; -275.000; -233.000
218.954;   12.125;  201.000;   35.000
219.099; -115.900; -713.000; -963.000
219.243;  -76.400; -589.000; -554.000
219.388;  -26.125; -264.000; -136.000
219.532;  -15.500; -116.000; -116.000
219.677;  -77.050; -564.000; -521.000
219.822;   10.150;   33.000;   89.000
219.966;   15.625;   17.000;  -99.000
220.111;  -29.000; -328.000;  -40.000
220.255; -100.400; -797.000; -750.000
220.400;   -9.200; -180.000; -146.000
220.544;  -72.100; -516.000; -450.000
220.689;  -55.225; -422.000; -451.000
220.833;  -14.050; -123.000;  -58.000
220.978;  -47.475; -393.000; -563.000
221.122;   32.550;  319.000;  307.000
221.267; -118.250; -906.000; -837.000
221.411;  -60.475; -478.000; -394.000
221.555;   -7.825; -104.000;  -23.000
221.700;  -53.075; -329.000; -222.000
221.844;   37.200;  255.000;  272.000
221.989;  -48.275; -328.000; -311.000
222.133;  -25.225; -289.000; -307.000
222.277;   -3.075;    5.000;   78.000
222.422;   11.400;  227.000;  113.000
222.566;  -48.750; -381.000; -214.000
222.711;  -60.975; -414.000; -479.000
222.855;  -87.750; -643.000; -586.000
222.999;  -88.050; -642.000; -717.000
223.144;  -39.125; -195.000; -194.000
223.288;   53.575;  423.000;  251.000
223.432;   19.500;  184.000;  230.000
223.576;   20.550;  152.000;  -21.000
223.721;   37.450;  364.000;  273.000
223.865;  -51.600; -472.000; -475.000
224.009;  239.000; 1673.000; 1631.000
224.153;  -81.550; -660.000; -671.000
224.298;  -63.625; -531.000; -489.000
224.442;  -23.825;  -74.000;  -33.000
224.586;  -12.900; -169.000; -106.000
224.730;  -90.650; -858.000; -670.000
224.875; -113.075; -739.000; -688.000
225.019;   13.950;  102.000;  188.000
225.163;   41.150;  208.000;  341.000
225.307;   14.925;   97.000;  -91.000
225.451;   42.275;  360.000;  481.000
225.595;   24.300;  264.000;  176.000
225.739;  -17.575; -170.000;  -94.000
225.884;   -0.725;   86.000;    5.000
226.028; -109.100; -760.000; -626.000
226.172;  -36.375; -260.000; -273.000
226.316; -108.000; -941.000; -902.000
226.460;  -72.650; -645.000; -493.000
226.604;  -53.050; -406.000; -400.000
226.748;  -99.550; -836.000; -733.000
226.892;  -37.425; -227.000; -181.000
227.036;  -49.025; -537.000; -447.000
227.180;  -63.550; -551.000; -375.000
227.324;  -62.875; -561.000; -580.000
227.468; -114.925; -819.000; -717.000
227.612;   10.400;  242.000;  -28.000
227.756; -103.000; -845.000; -698.000
227.900;   47.500;  342.000;  441.000
228.044;  -48.150; -509.000; -290.000
228.188;   60.425;  448.000;  568.000
228.332;  -86.150; -546.000; -472.000
228.476;  -36.475; -223.000; -149.000
228.620;  -33.025; -210.000; -150.000
228.764;   63.175;  431.000;  349.000
228.908;  -27.450; -155.000;   30.000
229.052;  -57.775; -615.000; -528.000
229.195;  -11.100; -172.000;   13.000
229.339;  -24.575; -235.000; -305.000
229.483;  -19.925;    5.000; -162.000
229.627;   -8.775; -156.000;  139.000
229.771;  -51.075; -218.000; -294.000
229.915;   -0.875;  230.000;   79.000
230.059;  -86.475; -648.000; -663.000
230.202;  -46.050; -370.000; -317.000
230.346;  -14.400; -107.000;  107.000
230.490;  -67.525; -489.000; -521.000
230.634; -112.650; -736.000; -553.000
230.777;   71.975;  478.000;  509.000
230.921;  -53.425; -450.000; -359.000
231.065;  -35.150; -246.000; -286.000
231.209;   26.400;  261.000;  265.000
231.352;   19.650;   54.000;   40.000
231.496;   15.850;  568.000;  188.000
231.640;  -89.500; -693.000; -621.000
231.783;   52.950;  546.000;  525.000
231.927;  -30.900; -294.000; -365.000
232.071; -125.975; -962.000; -736.000
232.214; -100.175; -980.000; -764.000
232.358;  -99.175; -683.000; -599.000
232.502;   -0.450;  -19.000;    7.000
232.645; -142.000;-1090.000; -927.000
232.789;  -23.100; -257.000; -218.000
232.933;  -44.750; -407.000; -224.000
233.076; -123.025;-1038.000; -897.000
233.220; -110.150; -752.000; -777.000
233.363;  -74.650; -669.000; -477.000
233.507;   39.825;  371.000;  129.000
233.650;  -94.325; -764.000; -834.000
233.794;   27.900;  438.000;  461.000
233.938;  -67.850; -530.000; -362.000
234.081;  -21.300;  -93.000;   31.000
234.225;  -65.825; -631.000; -539.000
234.368; -110.275; -773.000; -723.000
234.512;  -46.400; -385.000; -299.000
234.655;  -94.900; -582.000; -555.000
234.798;  -75.275; -493.000; -466.000
234.942; -126.900; -884.000;-1002.000
235.085;  -86.575; -651.000; -443.000
235.229;  -67.075; -405.000; -410.000
235.372;  -43.550; -247.000; -191.000
235.516;  -51.975; -397.000; -321.000
235.659;    8.650;   92.000;  121.000
235.802;  -26.625;  -38.000;  -22.000
235.946;   19.900;  335.000;  215.000
236.089;   29.900;  126.000;  250.000
236.233;   42.650;  275.000;  298.000
236.376;  -61.300; -235.000; -378.000
236.519;  -44.625; -297.000; -319.000
236.663;  -22.850; -215.000; -117.000
236.806; -134.050;-1029.000; -999.000
236.949;   54.900;  543.000;  431.000
237.092;   59.250;  412.000;  391.000
237.236;  -82.325; -589.000; -502.000
237.379;   58.850;  352.000;  428.000
237.522; -129.075; -879.000; -768.000
237.666;  -10.675; -271.000;   18.000
237.809; -117.175; -851.000; -823.000
237.952;   30.425;  469.000;  271.000
238.095;  -68.250; -447.000; -442.000
238.238;   69.800;  688.000;  700.000
238.382;   -6.800;  166.000;  103.000
238.525;  -75.625; -598.000; -511.000
238.668; -153.850;-1060.000; -985.000
238.811;  -79.600; -638.000; -643.000
238.954;  -62.875; -483.000; -334.000
239.097;   87.500;  617.000;  664.000
239.241;   23.100;  394.000;  326.000
239.384;  -44.200; -254.000; -214.000
239.527;  -69.250; -424.000; -224.000
239.670; -159.900; -994.000;-1091.000
239.813; -123.250; -696.000; -658.000
239.956;   72.225;  579.000;  473.000
240.099; -114.725; -778.000; -725.000
240.242;   55.125;  428.000;  432.000
240.385;   35.675;  466.000;  450.000
240.528;  -68.675; -706.000; -473.000
240.671;    4.175;  189.000;  134.000
240.814;  -51.875; -441.000; -158.000
240.957; -117.375; -767.000; -578.000
241.100; -103.875; -779.000; -755.000
241.243; -148.725;-1234.000; -893.000
241.386;  -74.200; -508.000; -379.000
241.529;  -99.025; -735.000; -547.000
241.672;  -71.050; -566.000; -495.000
241.815; -131.250; -832.000; -808.000
241.958;  -25.125; -125.000; -182.000
242.101;  -83.400; -545.000; -390.000
242.244;  -58.575; -270.000; -325.000
242.387;  -53.350; -304.000; -246.000
242.530;   61.300;  470.000;  134.000
242.673;  -42.750; -381.000; -309.000
242.815; -125.625; -925.000; -899.000
242.958;  -61.050; -482.000; -381.000
243.101;    3.750;  132.000;  187.000
243.244;  -83.125; -564.000; -521.000
243.387;  -59.600; -313.000; -316.000
243.530; -108.900; -657.000; -674.000
243.672;   -0.475;   43.000;  -92.000
243.815;  -56.000; -355.000; -283.000
243.958;   -3.125;   98.000;  -26.000
244.101;   11.400;   59.000;  -16.000
244.243;  -23.725;  -47.000;  101.000
244.386; -119.050; -761.000; -630.000
244.529;  -23.250; -132.000; -139.000
244.672; -172.850;-1154.000; -951.000
244.814; -101.250; -621.000; -794.000
244.957;  -68.950; -380.000; -304.000
245.100;  -86.675; -489.000; -489.000
245.242;  -61.400; -387.000; -374.000
245.385;  -16.950;  -59.000;  -39.000
245.528; -126.175; -871.000; -705.000
245.670;   79.025;  612.000;  634.000
245.813;  -91.825; -599.000; -547.000
245.956;  -36.200; -324.000; -275.000
246.098;  -69.850; -508.000; -650.000
246.241;    0.275;  194.000;   48.000
246.383;  -11.050; -119.000;  -73.000
246.526;  -76.125; -454.000; -525.000
246.669; -117.850; -889.000; -780.000
246.811;   14.325;  172.000;   -1.000
246.954;  -57.450; -512.000; -426.000
247.096;  -22.300;  -84.000;   -6.000
247.239;  -82.225; -482.000; -445.000
247.381;  -73.750; -647.000; -488.000
247.524;   71.125;  645.000;  679.000
247.666;  -14.125;   58.000;   11.000
247.809; -108.325; -887.000; -691.000
247.951;  -22.875;  -75.000;  138.000
248.094;   21.400;  432.000;  308.000
248.236; -160.900;-1262.000;-1238.000
248.378;    0.150; -356.000;  -81.000
248.521;  -25.325; -334.000; -337.000
248.663;  -40.550; -236.000; -267.000
248.806;  -22.200; -300.000; -266.000
248.948;  -82.825; -886.000; -763.000
249.090;  -45.200; -428.000; -398.000
249.233;  -42.825; -344.000; -381.000
249.375;  -66.325; -474.000; -451.000
249.518;  -32.400;  -83.000; -133.000
249.660;  -19.550; -103.000;    3.000
249.802; -173.125;-1303.000;-1189.000
249.945;  -71.300; -612.000; -540.000
250.087; -121.975; -834.000; -768.000
250.229;  -65.625; -362.000; -480.000
250.371;  -66.400; -494.000; -439.000
250.514;  -57.625; -310.000; -244.000
250.656;  -67.475;   69.000;  102.000
250.798; -123.675; -849.000; -800.000
250.940;  -72.275; -322.000; -322.000
251.083;  -49.325; -335.000; -111.000
251.225;   48.325;  338.000;  310.000
251.367;  -42.400; -274.000; -373.000
251.509;  -46.425; -265.000; -210.000
251.651;  -96.200; -731.000; -671.000
251.794;   77.300;  538.000;  632.000
251.936; -105.925; -821.000; -747.000
252.078;  -80.700; -540.000; -461.000
252.220;  -76.625; -645.000; -477.000
252.362;   91.475;  344.000;  462.000
252.504;  -67.425; -677.000; -584.000
252.646; -112.750; -875.000; -722.000
252.788;    4.200;   14.000; -128.000
252.931;  -39.100; -257.000; -253.000
253.073;  -48.925; -376.000; -317.000
253.215;   -5.625;  141.000;  122.000
253.357;  -16.025;   82.000; -153.000
253.499;  -41.800; -374.000; -234.000
253.641;  -90.325; -749.000; -594.000
253.783;  -89.950; -609.000; -527.000
253.925;  -83.550; -586.000; -591.000
254.067; -120.000; -744.000; -667.000
254.209;  -19.225; -391.000; -259.000
254.351; -140.200; -865.000; -883.000
254.493;  -72.050; -441.000; -417.000
254.635; -127.900; -936.000; -818.000
254.777; -102.800; -752.000; -687.000
254.918;  -83.400; -512.000; -430.000
255.060;  -56.125; -551.000; -395.000
255.202;  -58.900; -473.000; -261.000
255.344;  -86.800; -658.000; -455.000
255.486;  -85.000; -471.000; -406.000
255.628; -116.850; -780.000; -781.000
255.770;  -83.025; -676.000; -536.000
255.912;  -72.650; -559.000; -468.000
256.053;  -86.225; -730.000; -508.000
256.195;  159.600; 1008.000;  903.000
256.337; -113.175; -861.000; -595.000
256.479;   75.900;  532.000;  416.000
256.621;  -48.975; -394.000; -212.000
256.762;  -93.025; -789.000; -742.000
256.904;   43.725;  485.000;  487.000
257.046;  -44.975; -381.000; -271.000
257.188;  -40.225; -351.000; -264.000
257.329;  -80.450; -525.000; -464.000
257.471; -101.550; -939.000; -807.000
257.613;  -66.575; -584.000; -498.000
257.755; -151.625;-1073.000; -982.000
257.896;   21.575;  286.000;  392.000
258.038;  -70.550; -403.000; -352.000
258.180;  -47.700; -354.000; -279.000
258.321;  -86.400; -581.000; -457.000
258.463;   -1.375;  -71.000;  133.000
258.605;  -86.625; -562.000; -570.000
258.746; -106.625; -886.000; -772.000
258.888; -155.575;-1026.000;-1020.000
259.029;   15.925;  121.000;   -8.000
259.171;  -88.225; -614.000; -550.000
259.313;   -3.250;  -49.000;  -47.000
259.454;  -70.275; -536.000; -414.000
259.596;  -57.000; -483.000; -390.000
259.737;  -75.075; -590.000; -474.000
259.879;   29.025;  217.000;  311.000
260.020;   95.325;  901.000;  636.000
260.162;  -42.225; -146.000; -253.000
260.303; -114.800; -768.000; -687.000
260.445;  -75.850; -609.000; -613.000
260.586;   27.925;  392.000;  157.000
260.728;  -40.875; -360.000; -248.000
260.869;  -70.475; -350.000; -343.000
261.011;   80.150;  706.000;  537.000
261.152;  -61.975; -479.000; -319.000
261.293;  -80.850; -576.000; -595.000
261.435;  -27.975; -219.000; -184.000
261.576;  -46.600; -455.000; -325.000
261.718;   44.025;  420.000;  470.000
261.859; -123.700; -940.000; -949.000
262.000; -139.300; -951.000;-1016.000
262.142;  -21.775;  -52.000;  -60.000
262.283; -128.150; -808.000; -691.000
262.424;  -94.000; -666.000; -625.000
262.566; -151.750;-1161.000; -983.000
262.707; -108.850; -840.000; -830.000
262.848; -131.325; -769.000; -726.000
262.990;  -46.825; -362.000; -345.000
263.131;   74.925;  650.000;  681.000
263.272;  -24.775;  -61.000;  -41.000
263.413;  -84.275; -589.000; -561.000
263.555;  -62.950; -669.000; -143.000
263.696;  -83.500; -550.000; -641.000
263.837;  -49.250; -449.000; -551.000
263.978;   -7.825;   -5.000;  -77.000
264.119;  -39.300; -283.000; -264.000
264.261; -114.300; -847.000; -630.000
264.402;    2.500;   33.000;   40.000
264.543;  -81.225; -509.000; -524.000
264.684;  -21.050;   61.000;  -50.000
264.825;  -80.025; -816.000; -538.000
264.966;   -9.500;  -84.000;  -67.000
265.107; -104.200; -646.000; -670.000
265.248; -119.925; -825.000; -812.000
265.390;  -19.300;  152.000;   -9.000
265.531;  -26.875; -238.000; -107.000
265.672;  -88.525; -557.000; -630.000
265.813;   58.625;  563.000;  439.000
265.954; -152.075; -959.000; -940.000
266.095;   -7.000; -372.000; -322.000
266.236; -107.825; -686.000; -548.000
266.377;  -35.025; -243.000; -297.000
266.518;  -73.350; -619.000; -547.000
266.659;   29.500;  170.000;  268.000
266.800;   -0.775;   83.000;   85.000
266.941;  -79.350; -487.000; -478.000
267.082;   18.275;  354.000;   99.000
267.223;  -54.375; -344.000; -273.000
267.364; -120.450; -892.000; -686.000
267.504;  -10.900;    3.000;  135.000
267.645;  -10.125;  160.000;   67.000
267.786;  -36.375; -147.000;  -86.000
267.927;  -72.325; -473.000; -379.000
268.068;  -13.300; -186.000;  -61.000
268.209;  -47.100; -175.000; -413.000
268.350;  -59.825; -388.000; -532.000
268.490;  -80.250; -648.000; -521.000
268.631;   47.100;  127.000;  225.000
268.772; -104.700; -874.000; -647.000
268.913;  -44.450; -328.000; -476.000
269.054;  -18.300; -117.000;   12.000
269.194;  -49.600; -418.000; -402.000
269.335; -156.250;-1137.000;-1074.000
269.476;  -24.825;   33.000;  -35.000
269.617;  -51.800; -347.000; -392.000
269.757;  -83.300; -713.000; -646.000
269.898; -104.900; -856.000; -613.000
270.039;  -52.825; -415.000; -405.000
270.180; -146.225; -952.000; -816.000
270.320;  -22.425; -190.000; -250.000
