
Integration time [ms]: 100.000
Averaging Nr. [scans]: 40
Smoothing Nr. [pixels]: 0
Data measured with spectrometer [name]: 2101012U2
Wave   ;Sample   ;Dark     ;Reference
[nm]   ;[counts] ;[counts] ;[counts] 

197.733;   37.100;  516.000;  404.000
197.879;  -75.825; -610.000; -634.000
198.025;  -49.375; -475.000; -420.000
198.171;  -70.725; -602.000; -612.000
198.317;  -37.325; -401.000; -316.000
198.463;  -50.125; -655.000; -404.000
198.609;   36.200;  181.000; -137.000
198.755;  -76.350; -644.000; -410.000
198.901;  -65.375; -505.000; -424.000
199.047;  -64.350; -615.000; -488.000
199.193;  -45.100; -230.000; -468.000
199.339;  -34.875; -222.000; -369.000
199.485;   36.050;  330.000;  271.000
199.631;   18.175;  227.000;  310.000
199.777;  -54.925; -466.000; -398.000
199.923;  -56.125; -610.000; -424.000
200.069;  -12.950; -141.000;  -58.000
200.215;   51.725;  128.000;  453.000
200.361;   41.375;  243.000;  477.000
200.507;  -74.275; -600.000; -373.000
200.653;  -23.875; -371.000; -194.000
200.798;  -35.300; -215.000; -125.000
200.944;   -5.150; -146.000;  -41.000
201.090;   27.125;   61.000;  222.000
201.236;   -8.175; -116.000; -158.000
201.382;  118.275;  874.000;  903.000
201.528;   -2.425;  -58.000;  -48.000
201.674;  -53.650; -386.000; -293.000
201.819;  -73.750; -540.000; -439.000
201.965;  -93.775; -699.000; -447.000
202.111;  -31.575; -273.000; -226.000
202.257;  -36.900; -250.000; -238.000
202.402;    3.525;   13.000;  -36.000
202.548;  -32.150; -169.000; -116.000
202.694;   72.075;  410.000; -183.000
202.840;  -73.675; -603.000; -531.000
202.985;  -67.175; -681.000; -639.000
203.131; -113.825; -832.000; -666.000
203.277;  -24.600; -199.000; -262.000
203.423;  -32.950; -434.000; -520.000
203.568;  -39.725; -462.000; -237.000
203.714;  -53.425; -535.000; -542.000
203.860;  -66.475; -682.000; -641.000
204.005;   18.875;  112.000;  167.000
204.151;   64.500;  561.000;  556.000
204.296;  -40.150; -354.000; -221.000
204.442;  -67.750; -600.000; -547.000
204.588;  -61.225; -592.000; -579.000
204.733;   13.975;  178.000;  168.000
204.879; -132.975;-1018.000; -822.000
205.025;    6.450;  -99.000;  126.000
205.170;   -0.050;  -17.000;   94.000
205.316;   74.500;  438.000;  661.000
205.461;  -88.250; -698.000; -554.000
205.607;   77.075;  609.000;  665.000
205.752;  -78.225; -626.000; -551.000
205.898;  -53.450; -501.000; -391.000
206.043;  -58.750; -578.000; -506.000
206.189;  -38.900; -243.000; -285.000
206.334;   66.600;  554.000;  606.000
206.480;   86.250;  409.000;  239.000
206.625;  -88.275; -529.000; -552.000
206.771;  -43.275; -451.000; -373.000
206.916;  -38.875; -210.000; -537.000
207.062;  -68.700; -545.000; -591.000
207.207;  -69.950; -546.000; -443.000
207.353;   51.750;  185.000;  460.000
207.498;    2.625;  196.000;   85.000
207.643;  -60.800; -501.000; -370.000
207.789; -123.425;-1069.000; -910.000
207.934;  -93.700; -665.000; -713.000
208.080;  -28.875; -154.000;   66.000
208.225;   -0.500;  -22.000;  -57.000
208.370;  -82.225; -727.000; -619.000
208.516;  -75.550; -741.000; -487.000
208.661;  -27.950; -127.000;  -69.000
208.806;  -20.850; -165.000; -171.000
208.952; -119.825;-1044.000; -731.000
209.097;   70.025;  378.000;  349.000
209.242;  -47.375; -307.000; -382.000
209.387;   77.300;  392.000;  350.000
209.533;  -67.400; -321.000; -350.000
209.678;   69.175;  472.000;  543.000
209.823;  -56.875; -408.000; -310.000
209.969;  -97.600; -860.000; -757.000
210.114; -104.475; -907.000; -719.000
210.259; -103.250; -939.000; -889.000
210.404;   -7.775; -171.000;  103.000
210.549;    3.500;  108.000;    3.000
210.695;   -9.825;   -3.000;  -95.000
210.840;   27.225;   94.000;   67.000
210.985;  -60.825; -484.000; -303.000
211.130;   69.800;  268.000;  406.000
211.275;    1.625;  207.000;  199.000
211.420;  -51.750; -300.000; -289.000
211.566;  -67.825; -536.000; -489.000
211.711;   15.400;  218.000;  157.000
211.856;  -72.750; -545.000; -519.000
212.001;   11.300;  151.000;   44.000
212.146;   16.025;  153.000;   49.000
212.291;  -21.200; -210.000; -186.000
212.436;  -34.475; -280.000;   -6.000
212.581;  -81.000; -685.000; -653.000
212.726;  -74.575; -487.000; -538.000
212.871;  -38.925; -552.000; -217.000
213.016; -157.375;-1172.000;-1029.000
213.161;   46.225;  406.000;  291.000
213.306;  -79.100; -435.000; -577.000
213.451;  -86.650; -778.000; -689.000
213.596;  -51.375; -455.000; -347.000
213.741;  -58.800; -448.000; -538.000
213.886;  -84.975; -498.000; -517.000
214.031;  -24.475; -294.000; -124.000
214.176;  -49.475; -408.000; -341.000
214.321;  -20.950; -296.000; -157.000
214.466;  -17.650; -163.000;  -43.000
214.611;   -9.100;  -61.000;  -10.000
214.756; -107.875; -948.000; -858.000
214.901;  -29.400; -388.000; -226.000
215.046; -110.100; -797.000; -825.000
215.191;   16.650;  128.000;   35.000
215.336;  -21.375; -157.000;  -19.000
215.480;  -55.375; -684.000; -505.000
215.625;  -15.825; -175.000;  -19.000
215.770;  -80.200; -757.000; -662.000
215.915;   -4.575;   -5.000;  -97.000
216.060;   11.025; -113.000;  -21.000
216.205; -104.625; -731.000; -779.000
216.349;  -72.175; -470.000; -533.000
216.494; -117.125; -939.000; -867.000
216.639;  -96.500; -823.000; -888.000
216.784;  -87.200; -577.000; -525.000
216.929;   23.325;  392.000;  281.000
217.073;  -16.675; -244.000;  -31.000
217.218;    9.075;   78.000;  -47.000
217.363;  -83.875; -656.000; -618.000
217.507;  -78.100; -623.000; -588.000
217.652; -123.725; -845.000; -874.000
217.797;  -83.750; -708.000; -659.000
217.942; -115.225; -856.000; -720.000
218.086;   72.525;  608.000;  539.000
218.231;  -28.800; -174.000;  -26.000
218.376;  -33.750; -337.000; -229.000
218.520;  -12.025;  -41.000;   96.000
218.665;  -25.700; -338.000; -204.000
218.810;  -39.825; -275.000; -233.000
218.954;    5.250;  201.000;   35.000
219.099; -116.350; -713.000; -963.000
219.243;  -64.675; -589.000; -554.000
219.388;  -24.375; -264.000; -136.000
219.532;  -14.475; -116.000; -116.000
219.677;  -74.750; -564.000; -521.000
219.822;    2.500;   33.000;   89.000
219.966;   -3.625;   17.000;  -99.000
220.111;  -39.875; -328.000;  -40.000
220.255;  -83.125; -797.000; -750.000
220.400;  -23.500; -180.000; -146.000
220.544;  -68.200; -516.000; -450.000
220.689;  -51.500; -422.000; -451.000
220.833;  -17.800; -123.000;  -58.000
220.978;  -49.500; -393.000; -563.000
221.122;   23.025;  319.000;  307.000
221.267; -106.075; -906.000; -837.000
221.411;  -67.150; -478.000; -394.000
221.555;  -14.400; -104.000;  -23.000
221.700;  -49.650; -329.000; -222.000
221.844;   35.875;  255.000;  272.000
221.989;  -47.675; -328.000; -311.000
222.133;  -47.950; -289.000; -307.000
222.277;  -11.250;    5.000;   78.000
222.422;    5.675;  227.000;  113.000
222.566;  -53.225; -381.000; -214.000
222.711;  -62.400; -414.000; -479.000
222.855;  -83.375; -643.000; -586.000
222.999;  -75.650; -642.000; -717.000
223.144;  -29.250; -195.000; -194.000
223.288;   53.050;  423.000;  251.000
223.432;   29.575;  184.000;  230.000
223.576;   18.400;  152.000;  -21.000
223.721;   29.875;  364.000;  273.000
223.865;  -54.900; -472.000; -475.000
224.009;  233.050; 1673.000; 1631.000
224.153;  -91.075; -660.000; -671.000
224.298;  -60.975; -531.000; -489.000
224.442;  -10.000;  -74.000;  -33.000
224.586;  -25.350; -169.000; -106.000
224.730;  -91.250; -858.000; -670.000
224.875; -104.875; -739.000; -688.000
225.019;   -0.150;  102.000;  188.000
225.163;   51.425;  208.000;  341.000
225.307;    7.375;   97.000;  -91.000
225.451;   34.475;  360.000;  481.000
225.595;   22.825;  264.000;  176.000
225.739;  -28.625; -170.000;  -94.000
225.884;   -8.675;   86.000;    5.000
226.028;  -96.350; -760.000; -626.000
226.172;  -39.300; -260.000; -273.000
226.316; -114.150; -941.000; -902.000
226.460;  -82.000; -645.000; -493.000
226.604;  -57.875; -406.000; -400.000
226.748; -102.725; -836.000; -733.000
226.892;  -42.925; -227.000; -181.000
227.036;  -55.500; -537.000; -447.000
227.180;  -44.700; -551.000; -375.000
227.324;  -57.225; -561.000; -580.000
227.468; -114.075; -819.000; -717.000
227.612;   10.075;  242.000;  -28.000
227.756;  -95.675; -845.000; -698.000
227.900;   42.850;  342.000;  441.000
228.044;  -63.525; -509.000; -290.000
228.188;   37.975;  448.000;  568.000
228.332;  -83.475; -546.000; -472.000
228.476;  -19.175; -223.000; -149.000
228.620;  -35.925; -210.000; -150.000
228.764;   58.025;  431.000;  349.000
228.908;  -20.450; -155.000;   30.000
229.052;  -63.225; -615.000; -528.000
229.195;  -19.675; -172.000;   13.000
229.339;  -28.200; -235.000; -305.000
229.483;  -26.125;    5.000; -162.000
229.627;   -2.175; -156.000;  139.000
229.771;  -45.625; -218.000; -294.000
229.915;    3.850;  230.000;   79.000
230.059;  -94.525; -648.000; -663.000
230.202;  -41.350; -370.000; -317.000
230.346;  -22.275; -107.000;  107.000
230.490;  -78.025; -489.000; -521.000
230.634; -109.825; -736.000; -553.000
230.777;   67.950;  478.000;  509.000
230.921;  -58.750; -450.000; -359.000
231.065;  -46.050; -246.000; -286.000
231.209;   21.050;  261.000;  265.000
231.352;   19.175;   54.000;   40.000
231.496;    3.625;  568.000;  188.000
231.640;  -75.375; -693.000; -621.000
231.783;   58.950;  546.000;  525.000
231.927;  -44.625; -294.000; -365.000
232.071; -120.525; -962.000; -736.000
232.214;  -94.975; -980.000; -764.000
232.358;  -91.150; -683.000; -599.000
232.502;    3.025;  -19.000;    7.000
232.645; -131.650;-1090.000; -927.000
232.789;  -26.475; -257.000; -218.000
232.933;  -39.375; -407.000; -224.000
233.076; -120.650;-1038.000; -897.000
233.220; -104.600; -752.000; -777.000
233.363;  -77.350; -669.000; -477.000
233.507;   39.225;  371.000;  129.000
233.650;  -92.775; -764.000; -834.000
233.794;   43.125;  438.000;  461.000
233.938;  -56.450; -530.000; -362.000
234.081;  -28.425;  -93.000;   31.000
234.225;  -69.800; -631.000; -539.000
234.368; -126.350; -773.000; -723.000
234.512;  -36.950; -385.000; -299.000
234.655;  -84.275; -582.000; -555.000
234.798;  -61.650; -493.000; -466.000
234.942; -127.225; -884.000;-1002.000
235.085;  -69.175; -651.000; -443.000
235.229;  -78.250; -405.000; -410.000
235.372;  -46.500; -247.000; -191.000
235.516;  -54.775; -397.000; -321.000
235.659;   18.425;   92.000;  121.000
235.802;  -11.375;  -38.000;  -22.000
235.946;   24.800;  335.000;  215.000
236.089;   28.750;  126.000;  250.000
236.233;   55.275;  275.000;  298.000
236.376;  -54.825; -235.000; -378.000
236.519;  -50.350; -297.000; -319.000
236.663;   -5.825; -215.000; -117.000
236.806; -128.750;-1029.000; -999.000
236.949;   36.525;  543.000;  431.000
237.092;   46.950;  412.000;  391.000
237.236;  -95.650; -589.000; -502.000
237.379;   61.550;  352.000;  428.000
237.522; -126.000; -879.000; -768.000
237.666;  -17.500; -271.000;   18.000
237.809; -123.125; -851.000; -823.000
237.952;   30.975;  469.000;  271.000
238.095;  -65.125; -447.000; -442.000
238.238;   83.575;  688.000;  700.000
238.382;    2.600;  166.000;  103.000
238.525;  -79.000; -598.000; -511.000
238.668; -140.800;-1060.000; -985.000
238.811;  -73.750; -638.000; -643.000
238.954;  -64.225; -483.000; -334.000
239.097;   92.700;  617.000;  664.000
239.241;   12.325;  394.000;  326.000
239.384;  -31.825; -254.000; -214.000
239.527;  -55.025; -424.000; -224.000
239.670; -139.225; -994.000;-1091.000
239.813; -107.150; -696.000; -658.000
239.956;   67.850;  579.000;  473.000
240.099; -107.875; -778.000; -725.000
240.242;   59.050;  428.000;  432.000
240.385;   38.950;  466.000;  450.000
240.528;  -74.950; -706.000; -473.000
240.671;   10.600;  189.000;  134.000
240.814;  -52.125; -441.000; -158.000
240.957;  -97.875; -767.000; -578.000
241.100;  -94.550; -779.000; -755.000
241.243; -138.475;-1234.000; -893.000
241.386;  -53.725; -508.000; -379.000
241.529;  -81.775; -735.000; -547.000
241.672;  -56.750; -566.000; -495.000
241.815; -112.625; -832.000; -808.000
241.958;  -26.475; -125.000; -182.000
242.101;  -80.025; -545.000; -390.000
242.244;  -43.875; -270.000; -325.000
242.387;  -44.875; -304.000; -246.000
242.530;   58.125;  470.000;  134.000
242.673;  -38.475; -381.000; -309.000
242.815; -116.025; -925.000; -899.000
242.958;  -77.175; -482.000; -381.000
243.101;    4.500;  132.000;  187.000
243.244;  -71.100; -564.000; -521.000
243.387;  -44.025; -313.000; -316.000
243.530;  -90.000; -657.000; -674.000
243.672;  -17.000;   43.000;  -92.000
243.815;  -53.200; -355.000; -283.000
243.958;   -3.000;   98.000;  -26.000
244.101;   -7.375;   59.000;  -16.000
244.243;  -23.075;  -47.000;  101.000
244.386;  -93.600; -761.000; -630.000
244.529;  -20.275; -132.000; -139.000
244.672; -141.725;-1154.000; -951.000
244.814;  -91.900; -621.000; -794.000
244.957;  -38.100; -380.000; -304.000
245.100;  -78.825; -489.000; -489.000
245.242;  -60.225; -387.000; -374.000
245.385;   -0.975;  -59.000;  -39.000
245.528; -124.300; -871.000; -705.000
245.670;   81.175;  612.000;  634.000
245.813;  -91.850; -599.000; -547.000
245.956;  -28.325; -324.000; -275.000
246.098;  -75.600; -508.000; -650.000
246.241;    4.700;  194.000;   48.000
246.383;  -29.825; -119.000;  -73.000
246.526;  -90.775; -454.000; -525.000
246.669; -121.550; -889.000; -780.000
246.811;   20.625;  172.000;   -1.000
246.954;  -51.025; -512.000; -426.000
247.096;  -16.925;  -84.000;   -6.000
247.239;  -67.175; -482.000; -445.000
247.381;  -77.950; -647.000; -488.000
247.524;   65.400;  645.000;  679.000
247.666;   -6.675;   58.000;   11.000
247.809; -121.550; -887.000; -691.000
247.951;  -16.075;  -75.000;  138.000
248.094;   21.175;  432.000;  308.000
248.236; -153.775;-1262.000;-1238.000
248.378;  -26.725; -356.000;  -81.000
248.521;  -37.050; -334.000; -337.000
248.663;  -38.925; -236.000; -267.000
248.806;  -41.475; -300.000; -266.000
248.948; -107.625; -886.000; -763.000
249.090;  -66.900; -428.000; -398.000
249.233;  -64.125; -344.000; -381.000
249.375;  -71.175; -474.000; -451.000
249.518;  -40.900;  -83.000; -133.000
249.660;  -10.900; -103.000;    3.000
249.802; -171.600;-1303.000;-1189.000
249.945;  -84.325; -612.000; -540.000
250.087; -113.800; -834.000; -768.000
250.229;  -51.500; -362.000; -480.000
250.371;  -61.550; -494.000; -439.000
250.514;  -51.400; -310.000; -244.000
250.656;  -63.025;   69.000;  102.000
250.798; -120.425; -849.000; -800.000
250.940;  -61.200; -322.000; -322.000
251.083;  -34.050; -335.000; -111.000
251.225;   42.000;  338.000;  310.000
251.367;  -50.250; -274.000; -373.000
251.509;  -38.500; -265.000; -210.000
251.651;  -95.500; -731.000; -671.000
251.794;   46.600;  538.000;  632.000
251.936; -125.175; -821.000; -747.000
252.078;  -77.275; -540.000; -461.000
252.220;  -75.250; -645.000; -477.000
252.362;   49.700;  344.000;  462.000
252.504;  -77.475; -677.000; -584.000
252.646; -106.500; -875.000; -722.000
252.788;  -11.450;   14.000; -128.000
252.931;  -51.225; -257.000; -253.000
253.073;  -41.250; -376.000; -317.000
253.215;   -4.500;  141.000;  122.000
253.357;  -31.575;   82.000; -153.000
253.499;  -47.475; -374.000; -234.000
253.641;  -95.125; -749.000; -594.000
253.783;  -99.075; -609.000; -527.000
253.925;  -86.050; -586.000; -591.000
254.067; -118.050; -744.000; -667.000
254.209;  -42.950; -391.000; -259.000
254.351; -143.025; -865.000; -883.000
254.493;  -69.325; -441.000; -417.000
254.635; -121.300; -936.000; -818.000
254.777;  -89.175; -752.000; -687.000
254.918;  -73.450; -512.000; -430.000
255.060;  -64.150; -551.000; -395.000
255.202;  -73.775; -473.000; -261.000
255.344;  -72.225; -658.000; -455.000
255.486;  -73.125; -471.000; -406.000
255.628; -128.725; -780.000; -781.000
255.770;  -85.350; -676.000; -536.000
255.912;  -68.575; -559.000; -468.000
256.053;  -91.400; -730.000; -508.000
256.195;  142.175; 1008.000;  903.000
256.337;  -98.000; -861.000; -595.000
256.479;   49.375;  532.000;  416.000
256.621;  -52.375; -394.000; -212.000
256.762;  -96.800; -789.000; -742.000
256.904;   32.650;  485.000;  487.000
257.046;  -45.400; -381.000; -271.000
257.188;  -62.675; -351.000; -264.000
257.329;  -85.750; -525.000; -464.000
257.471; -109.525; -939.000; -807.000
257.613;  -78.150; -584.000; -498.000
257.755; -147.150;-1073.000; -982.000
257.896;   31.025;  286.000;  392.000
258.038;  -66.825; -403.000; -352.000
258.180;  -34.575; -354.000; -279.000
258.321;  -80.850; -581.000; -457.000
258.463;   -9.650;  -71.000;  133.000
258.605;  -97.225; -562.000; -570.000
258.746;  -93.475; -886.000; -772.000
258.888; -151.975;-1026.000;-1020.000
259.029;    6.825;  121.000;   -8.000
259.171;  -93.025; -614.000; -550.000
259.313;   -0.250;  -49.000;  -47.000
259.454;  -67.625; -536.000; -414.000
259.596;  -65.200; -483.000; -390.000
259.737;  -67.500; -590.000; -474.000
259.879;   30.225;  217.000;  311.000
260.020;   71.825;  901.000;  636.000
260.162;  -38.050; -146.000; -253.000
260.303; -120.375; -768.000; -687.000
260.445;  -85.875; -609.000; -613.000
260.586;    2.275;  392.000;  157.000
260.728;  -52.400; -360.000; -248.000
260.869;  -57.100; -350.000; -343.000
261.011;   66.825;  706.000;  537.000
261.152;  -64.825; -479.000; -319.000
261.293;  -75.350; -576.000; -595.000
261.435;  -37.725; -219.000; -184.000
261.576;  -50.150; -455.000; -325.000
261.718;   50.000;  420.000;  470.000
261.859; -127.450; -940.000; -949.000
262.000; -138.475; -951.000;-1016.000
262.142;  -31.575;  -52.000;  -60.000
262.283; -105.850; -808.000; -691.000
262.424;  -90.650; -666.000; -625.000
262.566; -158.800;-1161.000; -983.000
262.707; -126.750; -840.000; -830.000
262.848; -126.600; -769.000; -726.000
262.990;  -60.225; -362.000; -345.000
263.131;   74.975;  650.000;  681.000
263.272;  -17.825;  -61.000;  -41.000
263.413;  -92.150; -589.000; -561.000
263.555;  -56.475; -669.000; -143.000
263.696;  -88.175; -550.000; -641.000
263.837;  -59.450; -449.000; -551.000
263.978;  -18.075;   -5.000;  -77.000
264.119;  -48.475; -283.000; -264.000
264.261; -120.025; -847.000; -630.000
264.402;   -5.625;   33.000;   40.000
264.543;  -75.700; -509.000; -524.000
264.684;  -15.450;   61.000;  -50.000
264.825;  -89.800; -816.000; -538.000
264.966;   -3.800;  -84.000;  -67.000
265.107; -113.875; -646.000; -670.000
265.248; -106.750; -825.000; -812.000
265.390;  -16.550;  152.000;   -9.000
265.531;  -28.900; -238.000; -107.000
265.672;  -86.025; -557.000; -630.000
265.813;   55.175;  563.000;  439.000
265.954; -133.550; -959.000; -940.000
266.095;  -39.300; -372.000; -322.000
266.236;  -95.975; -686.000; -548.000
266.377;  -39.450; -243.000; -297.000
266.518;  -66.075; -619.000; -547.000
266.659;   22.125;  170.000;  268.000
266.800;   -6.850;   83.000;   85.000
266.941;  -88.675; -487.000; -478.000
267.082;    3.650;  354.000;   99.000
267.223;  -41.475; -344.000; -273.000
267.364; -122.075; -892.000; -686.000
267.504;  -25.725;    3.000;  135.000
267.645;   -5.675;  160.000;   67.000
267.786;  -34.250; -147.000;  -86.000
267.927;  -72.575; -473.000; -379.000
268.068;  -21.025; -186.000;  -61.000
268.209;  -51.675; -175.000; -413.000
268.350;  -69.075; -388.000; -532.000
268.490;  -96.400; -648.000; -521.000
268.631;   20.900;  127.000;  225.000
268.772; -104.125; -874.000; -647.000
268.913;  -59.350; -328.000; -476.000
269.054;  -33.150; -117.000;   12.000
269.194;  -66.850; -418.000; -402.000
269.335; -153.600;-1137.000;-1074.000
269.476;  -20.525;   33.000;  -35.000
269.617;  -53.775; -347.000; -392.000
269.757;  -95.025; -713.000; -646.000
269.898;  -97.550; -856.000; -613.000
270.039;  -64.575; -415.000; -405.000
270.180; -132.775; -952.000; -816.000
270.320;  -19.300; -190.000; -250.000
