
Integration time [ms]: 100.000
Averaging Nr. [scans]: 40
Smoothing Nr. [pixels]: 0
Data measured with spectrometer [name]: 2101012U2
Wave   ;Sample   ;Dark     ;Reference
[nm]   ;[counts] ;[counts] ;[counts] 

197.733;   53.700;  516.000;  404.000
197.879;  -72.200; -610.000; -634.000
198.025;  -57.200; -475.000; -420.000
198.171;  -75.900; -602.000; -612.000
198.317;  -36.450; -401.000; -316.000
198.463;  -57.700; -655.000; -404.000
198.609;   25.275;  181.000; -137.000
198.755;  -89.200; -644.000; -410.000
198.901;  -70.825; -505.000; -424.000
199.047;  -69.275; -615.000; -488.000
199.193;  -45.325; -230.000; -468.000
199.339;  -42.025; -222.000; -369.000
199.485;   31.300;  330.000;  271.000
199.631;    8.925;  227.000;  310.000
199.777;  -56.750; -466.000; -398.000
199.923;  -56.700; -610.000; -424.000
200.069;  -15.650; -141.000;  -58.000
200.215;   58.775;  128.000;  453.000
200.361;   33.400;  243.000;  477.000
200.507;  -61.725; -600.000; -373.000
200.653;  -28.000; -371.000; -194.000
200.798;  -46.750; -215.000; -125.000
200.944;   -7.375; -146.000;  -41.000
201.090;   45.975;   61.000;  222.000
201.236;   -9.925; -116.000; -158.000
201.382;  132.625;  874.000;  903.000
201.528;   -4.500;  -58.000;  -48.000
201.674;  -47.025; -386.000; -293.000
201.819;  -68.675; -540.000; -439.000
201.965;  -83.275; -699.000; -447.000
202.111;  -38.425; -273.000; -226.000
202.257;  -47.575; -250.000; -238.000
202.402;   -0.725;   13.000;  -36.000
202.548;  -37.275; -169.000; -116.000
202.694;   76.225;  410.000; -183.000
202.840;  -75.375; -603.000; -531.000
202.985;  -79.625; -681.000; -639.000
203.131; -114.225; -832.000; -666.000
203.277;  -30.625; -199.000; -262.000
203.423;  -64.900; -434.000; -520.000
203.568;  -39.250; -462.000; -237.000
203.714;  -60.900; -535.000; -542.000
203.860;  -78.775; -682.000; -641.000
204.005;   13.525;  112.000;  167.000
204.151;   75.450;  561.000;  556.000
204.296;  -45.250; -354.000; -221.000
204.442;  -78.425; -600.000; -547.000
204.588;  -83.875; -592.000; -579.000
204.733;   14.025;  178.000;  168.000
204.879; -123.275;-1018.000; -822.000
205.025;    1.900;  -99.000;  126.000
205.170;   -6.200;  -17.000;   94.000
205.316;   72.350;  438.000;  661.000
205.461;  -85.875; -698.000; -554.000
205.607;   92.350;  609.000;  665.000
205.752;  -86.075; -626.000; -551.000
205.898;  -62.650; -501.000; -391.000
206.043;  -60.225; -578.000; -506.000
206.189;  -54.050; -243.000; -285.000
206.334;   69.375;  554.000;  606.000
206.480;   82.500;  409.000;  239.000
206.625;  -77.200; -529.000; -552.000
206.771;  -52.675; -451.000; -373.000
206.916;  -38.800; -210.000; -537.000
207.062;  -78.175; -545.000; -591.000
207.207;  -59.200; -546.000; -443.000
207.353;   57.500;  185.000;  460.000
207.498;   14.000;  196.000;   85.000
207.643;  -63.300; -501.000; -370.000
207.789; -132.900;-1069.000; -910.000
207.934; -110.475; -665.000; -713.000
208.080;  -33.825; -154.000;   66.000
208.225;  -15.675;  -22.000;  -57.000
208.370;  -78.950; -727.000; -619.000
208.516;  -80.775; -741.000; -487.000
208.661;  -39.450; -127.000;  -69.000
208.806;  -23.850; -165.000; -171.000
208.952; -129.000;-1044.000; -731.000
209.097;   66.625;  378.000;  349.000
209.242;  -48.600; -307.000; -382.000
209.387;   63.775;  392.000;  350.000
209.533;  -38.800; -321.000; -350.000
209.678;   83.525;  472.000;  543.000
209.823;  -48.875; -408.000; -310.000
209.969; -110.500; -860.000; -757.000
210.114; -110.775; -907.000; -719.000
210.259; -129.125; -939.000; -889.000
210.404;  -12.200; -171.000;  103.000
210.549;    9.900;  108.000;    3.000
210.695;  -17.200;   -3.000;  -95.000
210.840;   25.550;   94.000;   67.000
210.985;  -57.825; -484.000; -303.000
211.130;   63.225;  268.000;  406.000
211.275;   11.950;  207.000;  199.000
211.420;  -56.575; -300.000; -289.000
211.566;  -75.850; -536.000; -489.000
211.711;   28.300;  218.000;  157.000
211.856;  -68.700; -545.000; -519.000
212.001;    6.750;  151.000;   44.000
212.146;   24.300;  153.000;   49.000
212.291;  -20.925; -210.000; -186.000
212.436;  -24.275; -280.000;   -6.000
212.581;  -89.625; -685.000; -653.000
212.726;  -82.200; -487.000; -538.000
212.871;  -64.275; -552.000; -217.000
213.016; -164.375;-1172.000;-1029.000
213.161;   60.400;  406.000;  291.000
213.306;  -80.975; -435.000; -577.000
213.451; -109.900; -778.000; -689.000
213.596;  -49.325; -455.000; -347.000
213.741;  -64.875; -448.000; -538.000
213.886;  -70.800; -498.000; -517.000
214.031;  -22.100; -294.000; -124.000
214.176;  -57.350; -408.000; -341.000
214.321;  -32.325; -296.000; -157.000
214.466;  -24.325; -163.000;  -43.000
214.611;   -7.400;  -61.000;  -10.000
214.756; -133.800; -948.000; -858.000
214.901;  -46.050; -388.000; -226.000
215.046; -124.500; -797.000; -825.000
215.191;   24.000;  128.000;   35.000
215.336;  -13.875; -157.000;  -19.000
215.480;  -76.025; -684.000; -505.000
215.625;  -11.000; -175.000;  -19.000
215.770;  -93.675; -757.000; -662.000
215.915;    3.600;   -5.000;  -97.000
216.060;    5.100; -113.000;  -21.000
216.205; -106.875; -731.000; -779.000
216.349;  -86.200; -470.000; -533.000
216.494; -133.075; -939.000; -867.000
216.639; -128.975; -823.000; -888.000
216.784;  -92.700; -577.000; -525.000
216.929;   50.350;  392.000;  281.000
217.073;  -14.925; -244.000;  -31.000
217.218;   -8.125;   78.000;  -47.000
217.363;  -89.000; -656.000; -618.000
217.507;  -91.725; -623.000; -588.000
217.652; -125.600; -845.000; -874.000
217.797;  -91.500; -708.000; -659.000
217.942; -115.550; -856.000; -720.000
218.086;   61.925;  608.000;  539.000
218.231;  -27.325; -174.000;  -26.000
218.376;  -40.650; -337.000; -229.000
218.520;   22.000;  -41.000;   96.000
218.665;  -42.925; -338.000; -204.000
218.810;  -45.725; -275.000; -233.000
218.954;   18.450;  201.000;   35.000
219.099; -109.500; -713.000; -963.000
219.243;  -76.800; -589.000; -554.000
219.388;  -37.275; -264.000; -136.000
219.532;  -23.750; -116.000; -116.000
219.677;  -65.400; -564.000; -521.000
219.822;  -11.100;   33.000;   89.000
219.966;    6.375;   17.000;  -99.000
220.111;  -35.825; -328.000;  -40.000
220.255; -103.675; -797.000; -750.000
220.400;  -31.625; -180.000; -146.000
220.544;  -72.475; -516.000; -450.000
220.689;  -60.350; -422.000; -451.000
220.833;   -5.100; -123.000;  -58.000
220.978;  -63.800; -393.000; -563.000
221.122;   39.650;  319.000;  307.000
221.267; -119.425; -906.000; -837.000
221.411;  -65.050; -478.000; -394.000
221.555;  -12.750; -104.000;  -23.000
221.700;  -46.000; -329.000; -222.000
221.844;   37.150;  255.000;  272.000
221.989;  -44.000; -328.000; -311.000
222.133;  -43.550; -289.000; -307.000
222.277;   -5.500;    5.000;   78.000
222.422;   16.125;  227.000;  113.000
222.566;  -30.600; -381.000; -214.000
222.711;  -55.350; -414.000; -479.000
222.855;  -76.325; -643.000; -586.000
222.999;  -84.275; -642.000; -717.000
223.144;  -43.400; -195.000; -194.000
223.288;   58.375;  423.000;  251.000
223.432;   20.250;  184.000;  230.000
223.576;   16.800;  152.000;  -21.000
223.721;   35.925;  364.000;  273.000
223.865;  -61.875; -472.000; -475.000
224.009;  241.750; 1673.000; 1631.000
224.153;  -86.125; -660.000; -671.000
224.298;  -59.025; -531.000; -489.000
224.442;  -22.725;  -74.000;  -33.000
224.586;  -18.375; -169.000; -106.000
224.730;  -99.950; -858.000; -670.000
224.875; -101.450; -739.000; -688.000
225.019;  -10.950;  102.000;  188.000
225.163;   44.475;  208.000;  341.000
225.307;    9.250;   97.000;  -91.000
225.451;   41.125;  360.000;  481.000
225.595;   27.275;  264.000;  176.000
225.739;  -19.575; -170.000;  -94.000
225.884;   -2.400;   86.000;    5.000
226.028; -101.325; -760.000; -626.000
226.172;  -43.575; -260.000; -273.000
226.316; -116.275; -941.000; -902.000
226.460;  -77.350; -645.000; -493.000
226.604;  -51.900; -406.000; -400.000
226.748;  -99.900; -836.000; -733.000
226.892;  -31.125; -227.000; -181.000
227.036;  -55.425; -537.000; -447.000
227.180;  -62.925; -551.000; -375.000
227.324;  -69.000; -561.000; -580.000
227.468; -116.875; -819.000; -717.000
227.612;    4.375;  242.000;  -28.000
227.756; -102.475; -845.000; -698.000
227.900;   56.125;  342.000;  441.000
228.044;  -52.750; -509.000; -290.000
228.188;   39.675;  448.000;  568.000
228.332;  -88.200; -546.000; -472.000
228.476;  -32.850; -223.000; -149.000
228.620;  -28.000; -210.000; -150.000
228.764;   64.900;  431.000;  349.000
228.908;  -17.750; -155.000;   30.000
229.052;  -76.925; -615.000; -528.000
229.195;   -3.925; -172.000;   13.000
229.339;  -24.200; -235.000; -305.000
229.483;  -29.950;    5.000; -162.000
229.627;  -10.575; -156.000;  139.000
229.771;  -57.650; -218.000; -294.000
229.915;   -2.925;  230.000;   79.000
230.059; -101.400; -648.000; -663.000
230.202;  -42.975; -370.000; -317.000
230.346;  -12.600; -107.000;  107.000
230.490;  -69.825; -489.000; -521.000
230.634; -111.725; -736.000; -553.000
230.777;   63.150;  478.000;  509.000
230.921;  -66.750; -450.000; -359.000
231.065;  -42.650; -246.000; -286.000
231.209;   30.950;  261.000;  265.000
231.352;   13.100;   54.000;   40.000
231.496;   32.950;  568.000;  188.000
231.640;  -82.000; -693.000; -621.000
231.783;   61.600;  546.000;  525.000
231.927;  -51.250; -294.000; -365.000
232.071; -122.675; -962.000; -736.000
232.214; -116.325; -980.000; -764.000
232.358;  -99.900; -683.000; -599.000
232.502;   -4.300;  -19.000;    7.000
232.645; -139.000;-1090.000; -927.000
232.789;  -43.150; -257.000; -218.000
232.933;  -50.425; -407.000; -224.000
233.076; -137.575;-1038.000; -897.000
233.220; -113.600; -752.000; -777.000
233.363;  -88.975; -669.000; -477.000
233.507;   62.950;  371.000;  129.000
233.650;  -99.325; -764.000; -834.000
233.794;   39.225;  438.000;  461.000
233.938;  -71.200; -530.000; -362.000
234.081;  -13.650;  -93.000;   31.000
234.225;  -74.625; -631.000; -539.000
234.368; -115.375; -773.000; -723.000
234.512;  -47.050; -385.000; -299.000
234.655;  -90.925; -582.000; -555.000
234.798;  -87.800; -493.000; -466.000
234.942; -131.625; -884.000;-1002.000
235.085;  -79.100; -651.000; -443.000
235.229;  -70.050; -405.000; -410.000
235.372;  -63.475; -247.000; -191.000
235.516;  -59.025; -397.000; -321.000
235.659;    4.125;   92.000;  121.000
235.802;  -12.250;  -38.000;  -22.000
235.946;   24.600;  335.000;  215.000
236.089;   28.050;  126.000;  250.000
236.233;   49.475;  275.000;  298.000
236.376;  -52.825; -235.000; -378.000
236.519;  -55.650; -297.000; -319.000
236.663;  -24.250; -215.000; -117.000
236.806; -160.275;-1029.000; -999.000
236.949;   75.825;  543.000;  431.000
237.092;   58.000;  412.000;  391.000
237.236;  -78.850; -589.000; -502.000
237.379;   55.700;  352.000;  428.000
237.522; -134.450; -879.000; -768.000
237.666;  -26.000; -271.000;   18.000
237.809; -130.375; -851.000; -823.000
237.952;   24.475;  469.000;  271.000
238.095;  -53.500; -447.000; -442.000
238.238;   79.425;  688.000;  700.000
238.382;   -7.775;  166.000;  103.000
238.525;  -83.700; -598.000; -511.000
238.668; -148.600;-1060.000; -985.000
238.811;  -87.675; -638.000; -643.000
238.954;  -52.550; -483.000; -334.000
239.097;   80.275;  617.000;  664.000
239.241;   26.500;  394.000;  326.000
239.384;  -40.725; -254.000; -214.000
239.527;  -47.350; -424.000; -224.000
239.670; -155.150; -994.000;-1091.000
239.813; -116.100; -696.000; -658.000
239.956;   89.450;  579.000;  473.000
240.099; -104.900; -778.000; -725.000
240.242;   54.400;  428.000;  432.000
240.385;   54.300;  466.000;  450.000
240.528;  -86.675; -706.000; -473.000
240.671;   23.225;  189.000;  134.000
240.814;  -46.850; -441.000; -158.000
240.957;  -91.650; -767.000; -578.000
241.100; -106.175; -779.000; -755.000
241.243; -135.575;-1234.000; -893.000
241.386;  -75.400; -508.000; -379.000
241.529;  -97.825; -735.000; -547.000
241.672;  -73.350; -566.000; -495.000
241.815;  -96.800; -832.000; -808.000
241.958;  -24.450; -125.000; -182.000
242.101;  -84.425; -545.000; -390.000
242.244;  -38.125; -270.000; -325.000
242.387;  -42.850; -304.000; -246.000
242.530;   50.875;  470.000;  134.000
242.673;  -35.650; -381.000; -309.000
242.815; -131.250; -925.000; -899.000
242.958;  -72.400; -482.000; -381.000
243.101;   -6.650;  132.000;  187.000
243.244;  -80.875; -564.000; -521.000
243.387;  -49.700; -313.000; -316.000
243.530;  -95.875; -657.000; -674.000
243.672;    1.675;   43.000;  -92.000
243.815;  -51.650; -355.000; -283.000
243.958;   -0.550;   98.000;  -26.000
244.101;  -10.650;   59.000;  -16.000
244.243;   -8.600;  -47.000;  101.000
244.386; -120.000; -761.000; -630.000
244.529;  -20.300; -132.000; -139.000
244.672; -160.075;-1154.000; -951.000
244.814; -104.225; -621.000; -794.000
244.957;  -36.175; -380.000; -304.000
245.100;  -87.925; -489.000; -489.000
245.242;  -58.050; -387.000; -374.000
245.385;  -10.825;  -59.000;  -39.000
245.528; -124.475; -871.000; -705.000
245.670;   84.450;  612.000;  634.000
245.813;  -98.300; -599.000; -547.000
245.956;  -39.150; -324.000; -275.000
246.098;  -80.550; -508.000; -650.000
246.241;  -17.150;  194.000;   48.000
246.383;  -12.050; -119.000;  -73.000
246.526;  -85.650; -454.000; -525.000
246.669; -117.900; -889.000; -780.000
246.811;   12.650;  172.000;   -1.000
246.954;  -70.225; -512.000; -426.000
247.096;  -25.975;  -84.000;   -6.000
247.239;  -69.900; -482.000; -445.000
247.381;  -78.750; -647.000; -488.000
247.524;   83.875;  645.000;  679.000
247.666;  -15.550;   58.000;   11.000
247.809; -123.150; -887.000; -691.000
247.951;  -12.925;  -75.000;  138.000
248.094;   20.900;  432.000;  308.000
248.236; -163.000;-1262.000;-1238.000
248.378;   -4.650; -356.000;  -81.000
248.521;  -33.250; -334.000; -337.000
248.663;  -52.325; -236.000; -267.000
248.806;  -33.950; -300.000; -266.000
248.948; -103.750; -886.000; -763.000
249.090;  -52.575; -428.000; -398.000
249.233;  -51.025; -344.000; -381.000
249.375;  -70.650; -474.000; -451.000
249.518;   -9.925;  -83.000; -133.000
249.660;  -13.500; -103.000;    3.000
249.802; -174.425;-1303.000;-1189.000
249.945;  -82.650; -612.000; -540.000
250.087; -102.950; -834.000; -768.000
250.229;  -49.425; -362.000; -480.000
250.371;  -69.575; -494.000; -439.000
250.514;  -67.025; -310.000; -244.000
250.656;  -15.175;   69.000;  102.000
250.798; -124.750; -849.000; -800.000
250.940;  -79.475; -322.000; -322.000
251.083;  -40.800; -335.000; -111.000
251.225;   53.425;  338.000;  310.000
251.367;  -44.050; -274.000; -373.000
251.509;  -32.600; -265.000; -210.000
251.651; -110.600; -731.000; -671.000
251.794;   41.800;  538.000;  632.000
251.936; -127.200; -821.000; -747.000
252.078;  -83.475; -540.000; -461.000
252.220;  -84.900; -645.000; -477.000
252.362;   81.550;  344.000;  462.000
252.504;  -81.450; -677.000; -584.000
252.646; -120.875; -875.000; -722.000
252.788;   -8.275;   14.000; -128.000
252.931;  -55.050; -257.000; -253.000
253.073;  -47.275; -376.000; -317.000
253.215;   -6.525;  141.000;  122.000
253.357;  -11.450;   82.000; -153.000
253.499;  -53.300; -374.000; -234.000
253.641;  -93.575; -749.000; -594.000
253.783;  -83.975; -609.000; -527.000
253.925; -104.325; -586.000; -591.000
254.067; -106.825; -744.000; -667.000
254.209;  -26.625; -391.000; -259.000
254.351; -137.600; -865.000; -883.000
254.493;  -66.425; -441.000; -417.000
254.635; -117.425; -936.000; -818.000
254.777;  -95.675; -752.000; -687.000
254.918;  -58.375; -512.000; -430.000
255.060;  -68.500; -551.000; -395.000
255.202;  -63.750; -473.000; -261.000
255.344;  -82.250; -658.000; -455.000
255.486;  -77.725; -471.000; -406.000
255.628; -121.075; -780.000; -781.000
255.770;  -85.750; -676.000; -536.000
255.912;  -70.325; -559.000; -468.000
256.053;  -85.575; -730.000; -508.000
256.195;  155.850; 1008.000;  903.000
256.337;  -94.775; -861.000; -595.000
256.479;   64.750;  532.000;  416.000
256.621;  -47.050; -394.000; -212.000
256.762; -106.850; -789.000; -742.000
256.904;   42.200;  485.000;  487.000
257.046;  -38.775; -381.000; -271.000
257.188;  -48.575; -351.000; -264.000
257.329;  -86.350; -525.000; -464.000
257.471; -127.750; -939.000; -807.000
257.613;  -78.100; -584.000; -498.000
257.755; -145.475;-1073.000; -982.000
257.896;   28.375;  286.000;  392.000
258.038;  -73.875; -403.000; -352.000
258.180;  -51.525; -354.000; -279.000
258.321;  -83.250; -581.000; -457.000
258.463;  -12.375;  -71.000;  133.000
258.605;  -95.750; -562.000; -570.000
258.746; -120.875; -886.000; -772.000
258.888; -150.925;-1026.000;-1020.000
259.029;   22.900;  121.000;   -8.000
259.171;  -96.425; -614.000; -550.000
259.313;  -11.950;  -49.000;  -47.000
259.454;  -76.225; -536.000; -414.000
259.596;  -70.925; -483.000; -390.000
259.737;  -80.225; -590.000; -474.000
259.879;   28.325;  217.000;  311.000
260.020;   79.575;  901.000;  636.000
260.162;  -29.025; -146.000; -253.000
260.303; -116.800; -768.000; -687.000
260.445;  -93.700; -609.000; -613.000
260.586;   28.450;  392.000;  157.000
260.728;  -33.025; -360.000; -248.000
260.869; -107.450; -350.000; -343.000
261.011;   72.125;  706.000;  537.000
261.152;  -66.450; -479.000; -319.000
261.293;  -89.800; -576.000; -595.000
261.435;  -28.800; -219.000; -184.000
261.576;  -62.100; -455.000; -325.000
261.718;   61.800;  420.000;  470.000
261.859; -132.125; -940.000; -949.000
262.000; -136.825; -951.000;-1016.000
262.142;  -24.350;  -52.000;  -60.000
262.283; -122.725; -808.000; -691.000
262.424;  -87.525; -666.000; -625.000
262.566; -159.650;-1161.000; -983.000
262.707; -124.600; -840.000; -830.000
262.848; -123.650; -769.000; -726.000
262.990;  -51.400; -362.000; -345.000
263.131;   71.125;  650.000;  681.000
263.272;   -9.150;  -61.000;  -41.000
263.413;  -95.900; -589.000; -561.000
263.555;  -74.675; -669.000; -143.000
263.696;  -84.600; -550.000; -641.000
263.837;  -71.275; -449.000; -551.000
263.978;  -10.575;   -5.000;  -77.000
264.119;  -59.175; -283.000; -264.000
264.261; -117.400; -847.000; -630.000
264.402;  -26.500;   33.000;   40.000
264.543;  -71.200; -509.000; -524.000
264.684;  -20.500;   61.000;  -50.000
264.825;  -73.125; -816.000; -538.000
264.966;   -1.775;  -84.000;  -67.000
265.107; -125.300; -646.000; -670.000
265.248; -129.250; -825.000; -812.000
265.390;   -5.725;  152.000;   -9.000
265.531;  -37.800; -238.000; -107.000
265.672;  -88.475; -557.000; -630.000
265.813;   64.425;  563.000;  439.000
265.954; -147.900; -959.000; -940.000
266.095;  -23.300; -372.000; -322.000
266.236;  -99.350; -686.000; -548.000
266.377;  -41.650; -243.000; -297.000
266.518;  -82.925; -619.000; -547.000
266.659;   29.200;  170.000;  268.000
266.800;    8.075;   83.000;   85.000
266.941;  -91.575; -487.000; -478.000
267.082;   14.975;  354.000;   99.000
267.223;  -66.625; -344.000; -273.000
267.364; -115.200; -892.000; -686.000
267.504;  -22.975;    3.000;  135.000
267.645;  -11.200;  160.000;   67.000
267.786;  -39.050; -147.000;  -86.000
267.927;  -64.250; -473.000; -379.000
268.068;  -17.075; -186.000;  -61.000
268.209;  -51.475; -175.000; -413.000
268.350;  -55.725; -388.000; -532.000
268.490;  -95.425; -648.000; -521.000
268.631;   32.100;  127.000;  225.000
268.772; -112.400; -874.000; -647.000
268.913;  -63.550; -328.000; -476.000
269.054;  -24.525; -117.000;   12.000
269.194;  -50.925; -418.000; -402.000
269.335; -153.750;-1137.000;-1074.000
269.476;  -26.550;   33.000;  -35.000
269.617;  -37.750; -347.000; -392.000
269.757; -101.100; -713.000; -646.000
269.898; -101.500; -856.000; -613.000
270.039;  -72.600; -415.000; -405.000
270.180; -133.700; -952.000; -816.000
270.320;  -39.900; -190.000; -250.000
