
Integration time [ms]: 100.000
Averaging Nr. [scans]: 40
Smoothing Nr. [pixels]: 0
Data measured with spectrometer [name]: 2101012U2
Wave   ;Sample   ;Dark     ;Reference
[nm]   ;[counts] ;[counts] ;[counts] 

197.733;   59.575;  516.000;  404.000
197.879;  -93.600; -610.000; -634.000
198.025;  -67.325; -475.000; -420.000
198.171;  -68.225; -602.000; -612.000
198.317;  -36.525; -401.000; -316.000
198.463;  -65.675; -655.000; -404.000
198.609;   23.900;  181.000; -137.000
198.755;  -87.325; -644.000; -410.000
198.901;  -64.975; -505.000; -424.000
199.047;  -50.500; -615.000; -488.000
199.193;  -49.550; -230.000; -468.000
199.339;  -35.875; -222.000; -369.000
199.485;   36.150;  330.000;  271.000
199.631;   21.950;  227.000;  310.000
199.777;  -56.300; -466.000; -398.000
199.923;  -53.000; -610.000; -424.000
200.069;  -18.900; -141.000;  -58.000
200.215;   58.600;  128.000;  453.000
200.361;   35.600;  243.000;  477.000
200.507;  -61.625; -600.000; -373.000
200.653;  -21.300; -371.000; -194.000
200.798;  -29.825; -215.000; -125.000
200.944;  -11.525; -146.000;  -41.000
201.090;   49.700;   61.000;  222.000
201.236;    2.025; -116.000; -158.000
201.382;  143.725;  874.000;  903.000
201.528;   -2.425;  -58.000;  -48.000
201.674;  -46.375; -386.000; -293.000
201.819;  -65.425; -540.000; -439.000
201.965;  -82.925; -699.000; -447.000
202.111;  -17.800; -273.000; -226.000
202.257;  -41.325; -250.000; -238.000
202.402;   11.425;   13.000;  -36.000
202.548;  -24.525; -169.000; -116.000
202.694;   92.900;  410.000; -183.000
202.840;  -77.775; -603.000; -531.000
202.985;  -68.875; -681.000; -639.000
203.131; -107.275; -832.000; -666.000
203.277;  -32.250; -199.000; -262.000
203.423;  -57.375; -434.000; -520.000
203.568;  -54.000; -462.000; -237.000
203.714;  -67.200; -535.000; -542.000
203.860;  -94.500; -682.000; -641.000
204.005;   17.600;  112.000;  167.000
204.151;   72.100;  561.000;  556.000
204.296;  -47.075; -354.000; -221.000
204.442;  -86.600; -600.000; -547.000
204.588;  -81.875; -592.000; -579.000
204.733;   24.725;  178.000;  168.000
204.879; -142.075;-1018.000; -822.000
205.025;   -3.100;  -99.000;  126.000
205.170;  -15.725;  -17.000;   94.000
205.316;   75.025;  438.000;  661.000
205.461;  -81.375; -698.000; -554.000
205.607;   85.250;  609.000;  665.000
205.752;  -83.150; -626.000; -551.000
205.898;  -60.075; -501.000; -391.000
206.043;  -66.925; -578.000; -506.000
206.189;  -58.700; -243.000; -285.000
206.334;   82.750;  554.000;  606.000
206.480;   80.825;  409.000;  239.000
206.625;  -84.625; -529.000; -552.000
206.771;  -57.475; -451.000; -373.000
206.916;  -39.125; -210.000; -537.000
207.062;  -79.125; -545.000; -591.000
207.207;  -74.725; -546.000; -443.000
207.353;   47.450;  185.000;  460.000
207.498;   24.000;  196.000;   85.000
207.643;  -60.950; -501.000; -370.000
207.789; -136.800;-1069.000; -910.000
207.934; -101.050; -665.000; -713.000
208.080;  -14.450; -154.000;   66.000
208.225;  -15.025;  -22.000;  -57.000
208.370;  -95.525; -727.000; -619.000
208.516;  -68.400; -741.000; -487.000
208.661;  -28.800; -127.000;  -69.000
208.806;  -36.025; -165.000; -171.000
208.952; -130.350;-1044.000; -731.000
209.097;   59.700;  378.000;  349.000
209.242;  -35.150; -307.000; -382.000
209.387;   49.250;  392.000;  350.000
209.533;  -49.750; -321.000; -350.000
209.678;   72.550;  472.000;  543.000
209.823;  -55.100; -408.000; -310.000
209.969; -110.875; -860.000; -757.000
210.114; -108.975; -907.000; -719.000
210.259; -124.300; -939.000; -889.000
210.404;  -15.575; -171.000;  103.000
210.549;   -2.775;  108.000;    3.000
210.695;   -3.950;   -3.000;  -95.000
210.840;   27.675;   94.000;   67.000
210.985;  -63.625; -484.000; -303.000
211.130;   55.900;  268.000;  406.000
211.275;   17.475;  207.000;  199.000
211.420;  -54.575; -300.000; -289.000
211.566;  -82.600; -536.000; -489.000
211.711;   13.000;  218.000;  157.000
211.856;  -60.600; -545.000; -519.000
212.001;   -1.200;  151.000;   44.000
212.146;   37.325;  153.000;   49.000
212.291;  -26.650; -210.000; -186.000
212.436;  -25.350; -280.000;   -6.000
212.581; -111.200; -685.000; -653.000
212.726;  -84.925; -487.000; -538.000
212.871;  -53.150; -552.000; -217.000
213.016; -155.675;-1172.000;-1029.000
213.161;   61.375;  406.000;  291.000
213.306;  -62.550; -435.000; -577.000
213.451; -100.850; -778.000; -689.000
213.596;  -57.325; -455.000; -347.000
213.741;  -61.550; -448.000; -538.000
213.886;  -83.475; -498.000; -517.000
214.031;  -36.750; -294.000; -124.000
214.176;  -45.725; -408.000; -341.000
214.321;  -40.150; -296.000; -157.000
214.466;  -24.025; -163.000;  -43.000
214.611;  -11.550;  -61.000;  -10.000
214.756; -122.725; -948.000; -858.000
214.901;  -51.575; -388.000; -226.000
215.046; -125.900; -797.000; -825.000
215.191;   20.400;  128.000;   35.000
215.336;  -16.000; -157.000;  -19.000
215.480;  -78.300; -684.000; -505.000
215.625;  -12.375; -175.000;  -19.000
215.770;  -96.025; -757.000; -662.000
215.915;  -10.400;   -5.000;  -97.000
216.060;   -4.850; -113.000;  -21.000
216.205; -109.250; -731.000; -779.000
216.349;  -84.500; -470.000; -533.000
216.494; -139.325; -939.000; -867.000
216.639; -123.475; -823.000; -888.000
216.784;  -97.975; -577.000; -525.000
216.929;   50.100;  392.000;  281.000
217.073;   -4.200; -244.000;  -31.000
217.218;  -15.375;   78.000;  -47.000
217.363;  -85.450; -656.000; -618.000
217.507;  -85.575; -623.000; -588.000
217.652; -134.350; -845.000; -874.000
217.797;  -97.225; -708.000; -659.000
217.942; -105.800; -856.000; -720.000
218.086;   61.150;  608.000;  539.000
218.231;  -17.775; -174.000;  -26.000
218.376;  -48.575; -337.000; -229.000
218.520;   -9.350;  -41.000;   96.000
218.665;  -31.950; -338.000; -204.000
218.810;  -39.200; -275.000; -233.000
218.954;   18.925;  201.000;   35.000
219.099; -111.275; -713.000; -963.000
219.243;  -93.375; -589.000; -554.000
219.388;  -31.300; -264.000; -136.000
219.532;  -13.900; -116.000; -116.000
219.677;  -76.900; -564.000; -521.000
219.822;   -6.125;   33.000;   89.000
219.966;   10.350;   17.000;  -99.000
220.111;  -55.225; -328.000;  -40.000
220.255;  -88.000; -797.000; -750.000
220.400;  -33.400; -180.000; -146.000
220.544;  -65.825; -516.000; -450.000
220.689;  -62.975; -422.000; -451.000
220.833;  -17.750; -123.000;  -58.000
220.978;  -43.375; -393.000; -563.000
221.122;   12.650;  319.000;  307.000
221.267; -126.250; -906.000; -837.000
221.411;  -65.875; -478.000; -394.000
221.555;  -11.175; -104.000;  -23.000
221.700;  -47.625; -329.000; -222.000
221.844;   26.075;  255.000;  272.000
221.989;  -57.500; -328.000; -311.000
222.133;  -44.225; -289.000; -307.000
222.277;  -13.700;    5.000;   78.000
222.422;   16.575;  227.000;  113.000
222.566;  -48.400; -381.000; -214.000
222.711;  -75.675; -414.000; -479.000
222.855;  -83.450; -643.000; -586.000
222.999;  -88.325; -642.000; -717.000
223.144;  -21.475; -195.000; -194.000
223.288;   43.025;  423.000;  251.000
223.432;   14.350;  184.000;  230.000
223.576;   14.350;  152.000;  -21.000
223.721;   36.225;  364.000;  273.000
223.865;  -74.075; -472.000; -475.000
224.009;  262.075; 1673.000; 1631.000
224.153;  -94.100; -660.000; -671.000
224.298;  -79.950; -531.000; -489.000
224.442;  -27.700;  -74.000;  -33.000
224.586;  -13.725; -169.000; -106.000
224.730; -105.775; -858.000; -670.000
224.875; -112.050; -739.000; -688.000
225.019;    5.900;  102.000;  188.000
225.163;   49.950;  208.000;  341.000
225.307;   19.750;   97.000;  -91.000
225.451;   51.400;  360.000;  481.000
225.595;   16.125;  264.000;  176.000
225.739;  -20.500; -170.000;  -94.000
225.884;  -11.425;   86.000;    5.000
226.028;  -98.450; -760.000; -626.000
226.172;  -54.475; -260.000; -273.000
226.316; -127.875; -941.000; -902.000
226.460;  -79.825; -645.000; -493.000
226.604;  -49.800; -406.000; -400.000
226.748; -111.275; -836.000; -733.000
226.892;  -40.825; -227.000; -181.000
227.036;  -68.575; -537.000; -447.000
227.180;  -58.350; -551.000; -375.000
227.324;  -73.125; -561.000; -580.000
227.468; -120.000; -819.000; -717.000
227.612;    1.075;  242.000;  -28.000
227.756;  -97.150; -845.000; -698.000
227.900;   42.175;  342.000;  441.000
228.044;  -64.075; -509.000; -290.000
228.188;   49.025;  448.000;  568.000
228.332;  -82.300; -546.000; -472.000
228.476;  -22.900; -223.000; -149.000
228.620;  -33.125; -210.000; -150.000
228.764;   63.425;  431.000;  349.000
228.908;  -27.575; -155.000;   30.000
229.052;  -81.075; -615.000; -528.000
229.195;  -18.100; -172.000;   13.000
229.339;  -31.425; -235.000; -305.000
229.483;  -10.625;    5.000; -162.000
229.627;  -10.175; -156.000;  139.000
229.771;  -56.000; -218.000; -294.000
229.915;    0.600;  230.000;   79.000
230.059; -100.575; -648.000; -663.000
230.202;  -44.775; -370.000; -317.000
230.346;  -24.900; -107.000;  107.000
230.490;  -79.850; -489.000; -521.000
230.634; -112.950; -736.000; -553.000
230.777;   68.775;  478.000;  509.000
230.921;  -62.750; -450.000; -359.000
231.065;  -55.925; -246.000; -286.000
231.209;   29.625;  261.000;  265.000
231.352;   16.325;   54.000;   40.000
231.496;   19.000;  568.000;  188.000
231.640;  -93.675; -693.000; -621.000
231.783;   57.375;  546.000;  525.000
231.927;  -51.875; -294.000; -365.000
232.071; -134.650; -962.000; -736.000
232.214; -130.000; -980.000; -764.000
232.358; -118.450; -683.000; -599.000
232.502;    1.450;  -19.000;    7.000
232.645; -136.475;-1090.000; -927.000
232.789;  -34.325; -257.000; -218.000
232.933;  -39.700; -407.000; -224.000
233.076; -140.175;-1038.000; -897.000
233.220; -117.575; -752.000; -777.000
233.363;  -87.775; -669.000; -477.000
233.507;   73.625;  371.000;  129.000
233.650; -103.475; -764.000; -834.000
233.794;   49.450;  438.000;  461.000
233.938;  -77.725; -530.000; -362.000
234.081;  -13.275;  -93.000;   31.000
234.225;  -82.125; -631.000; -539.000
234.368; -113.775; -773.000; -723.000
234.512;  -56.125; -385.000; -299.000
234.655; -111.950; -582.000; -555.000
234.798;  -83.550; -493.000; -466.000
234.942; -132.175; -884.000;-1002.000
235.085;  -73.875; -651.000; -443.000
235.229;  -71.550; -405.000; -410.000
235.372;  -60.775; -247.000; -191.000
235.516;  -59.400; -397.000; -321.000
235.659;    5.450;   92.000;  121.000
235.802;  -10.450;  -38.000;  -22.000
235.946;   15.125;  335.000;  215.000
236.089;   27.125;  126.000;  250.000
236.233;   39.250;  275.000;  298.000
236.376;  -56.575; -235.000; -378.000
236.519;  -62.775; -297.000; -319.000
236.663;  -29.825; -215.000; -117.000
236.806; -147.400;-1029.000; -999.000
236.949;   49.200;  543.000;  431.000
237.092;   46.100;  412.000;  391.000
237.236;  -96.425; -589.000; -502.000
237.379;   53.175;  352.000;  428.000
237.522; -126.925; -879.000; -768.000
237.666;  -23.700; -271.000;   18.000
237.809; -122.450; -851.000; -823.000
237.952;   25.425;  469.000;  271.000
238.095;  -68.475; -447.000; -442.000
238.238;   77.325;  688.000;  700.000
238.382;   -9.675;  166.000;  103.000
238.525;  -89.550; -598.000; -511.000
238.668; -149.900;-1060.000; -985.000
238.811;  -91.700; -638.000; -643.000
238.954;  -58.550; -483.000; -334.000
239.097;   81.125;  617.000;  664.000
239.241;   28.450;  394.000;  326.000
239.384;  -40.350; -254.000; -214.000
239.527;  -60.425; -424.000; -224.000
239.670; -146.550; -994.000;-1091.000
239.813; -111.250; -696.000; -658.000
239.956;   78.425;  579.000;  473.000
240.099; -114.950; -778.000; -725.000
240.242;   56.525;  428.000;  432.000
240.385;   39.750;  466.000;  450.000
240.528;  -88.575; -706.000; -473.000
240.671;   22.450;  189.000;  134.000
240.814;  -47.925; -441.000; -158.000
240.957; -103.300; -767.000; -578.000
241.100; -104.100; -779.000; -755.000
241.243; -142.500;-1234.000; -893.000
241.386;  -71.925; -508.000; -379.000
241.529;  -93.875; -735.000; -547.000
241.672;  -63.175; -566.000; -495.000
241.815; -118.500; -832.000; -808.000
241.958;  -34.775; -125.000; -182.000
242.101;  -72.675; -545.000; -390.000
242.244;  -46.225; -270.000; -325.000
242.387;  -48.325; -304.000; -246.000
242.530;   58.000;  470.000;  134.000
242.673;  -51.575; -381.000; -309.000
242.815; -125.350; -925.000; -899.000
242.958;  -69.625; -482.000; -381.000
243.101;   11.150;  132.000;  187.000
243.244;  -91.975; -564.000; -521.000
243.387;  -47.875; -313.000; -316.000
243.530; -107.700; -657.000; -674.000
243.672;  -21.425;   43.000;  -92.000
243.815;  -59.550; -355.000; -283.000
243.958;  -16.475;   98.000;  -26.000
244.101;   16.500;   59.000;  -16.000
244.243;  -18.450;  -47.000;  101.000
244.386; -111.000; -761.000; -630.000
244.529;  -29.325; -132.000; -139.000
244.672; -162.000;-1154.000; -951.000
244.814; -108.975; -621.000; -794.000
244.957;  -54.550; -380.000; -304.000
245.100;  -80.750; -489.000; -489.000
245.242;  -55.025; -387.000; -374.000
245.385;  -19.875;  -59.000;  -39.000
245.528; -126.575; -871.000; -705.000
245.670;   87.425;  612.000;  634.000
245.813;  -97.975; -599.000; -547.000
245.956;  -48.475; -324.000; -275.000
246.098;  -71.250; -508.000; -650.000
246.241;   -2.875;  194.000;   48.000
246.383;  -25.350; -119.000;  -73.000
246.526; -100.850; -454.000; -525.000
246.669; -127.325; -889.000; -780.000
246.811;    5.150;  172.000;   -1.000
246.954;  -72.500; -512.000; -426.000
247.096;  -32.275;  -84.000;   -6.000
247.239;  -72.000; -482.000; -445.000
247.381;  -85.200; -647.000; -488.000
247.524;   86.950;  645.000;  679.000
247.666;  -20.175;   58.000;   11.000
247.809; -117.825; -887.000; -691.000
247.951;  -17.075;  -75.000;  138.000
248.094;   26.600;  432.000;  308.000
248.236; -176.550;-1262.000;-1238.000
248.378;    2.625; -356.000;  -81.000
248.521;  -41.075; -334.000; -337.000
248.663;  -42.300; -236.000; -267.000
248.806;  -23.900; -300.000; -266.000
248.948; -104.325; -886.000; -763.000
249.090;  -54.600; -428.000; -398.000
249.233;  -55.900; -344.000; -381.000
249.375;  -59.400; -474.000; -451.000
249.518;  -15.800;  -83.000; -133.000
249.660;  -17.950; -103.000;    3.000
249.802; -177.725;-1303.000;-1189.000
249.945;  -85.000; -612.000; -540.000
250.087; -125.875; -834.000; -768.000
250.229;  -63.500; -362.000; -480.000
250.371;  -86.225; -494.000; -439.000
250.514;  -65.250; -310.000; -244.000
250.656;  -63.000;   69.000;  102.000
250.798; -119.175; -849.000; -800.000
250.940;  -51.950; -322.000; -322.000
251.083;  -36.225; -335.000; -111.000
251.225;   52.050;  338.000;  310.000
251.367;  -33.575; -274.000; -373.000
251.509;  -32.325; -265.000; -210.000
251.651; -118.325; -731.000; -671.000
251.794;   59.475;  538.000;  632.000
251.936; -115.475; -821.000; -747.000
252.078;  -80.175; -540.000; -461.000
252.220;  -83.100; -645.000; -477.000
252.362;   88.075;  344.000;  462.000
252.504;  -74.225; -677.000; -584.000
252.646; -121.875; -875.000; -722.000
252.788;  -24.350;   14.000; -128.000
252.931;  -45.650; -257.000; -253.000
253.073;  -60.200; -376.000; -317.000
253.215;   -2.650;  141.000;  122.000
253.357;  -23.725;   82.000; -153.000
253.499;  -54.800; -374.000; -234.000
253.641;  -88.425; -749.000; -594.000
253.783;  -99.875; -609.000; -527.000
253.925;  -98.000; -586.000; -591.000
254.067; -114.575; -744.000; -667.000
254.209;  -32.375; -391.000; -259.000
254.351; -141.000; -865.000; -883.000
254.493;  -76.825; -441.000; -417.000
254.635; -141.125; -936.000; -818.000
254.777;  -94.975; -752.000; -687.000
254.918;  -67.375; -512.000; -430.000
255.060;  -60.850; -551.000; -395.000
255.202;  -67.725; -473.000; -261.000
255.344;  -87.475; -658.000; -455.000
255.486;  -53.525; -471.000; -406.000
255.628; -126.550; -780.000; -781.000
255.770;  -87.950; -676.000; -536.000
255.912;  -66.825; -559.000; -468.000
256.053;  -95.900; -730.000; -508.000
256.195;  150.325; 1008.000;  903.000
256.337;  -99.675; -861.000; -595.000
256.479;   58.125;  532.000;  416.000
256.621;  -53.175; -394.000; -212.000
256.762; -112.725; -789.000; -742.000
256.904;   47.925;  485.000;  487.000
257.046;  -55.550; -381.000; -271.000
257.188;  -49.425; -351.000; -264.000
257.329;  -84.000; -525.000; -464.000
257.471; -124.725; -939.000; -807.000
257.613;  -75.200; -584.000; -498.000
257.755; -146.675;-1073.000; -982.000
257.896;   21.825;  286.000;  392.000
258.038;  -84.025; -403.000; -352.000
258.180;  -54.125; -354.000; -279.000
258.321;  -84.025; -581.000; -457.000
258.463;   -8.300;  -71.000;  133.000
258.605;  -83.400; -562.000; -570.000
258.746; -110.975; -886.000; -772.000
258.888; -152.450;-1026.000;-1020.000
259.029;   11.100;  121.000;   -8.000
259.171;  -92.975; -614.000; -550.000
259.313;  -17.725;  -49.000;  -47.000
259.454;  -80.025; -536.000; -414.000
259.596;  -59.225; -483.000; -390.000
259.737;  -82.575; -590.000; -474.000
259.879;   29.200;  217.000;  311.000
260.020;   95.475;  901.000;  636.000
260.162;  -35.625; -146.000; -253.000
260.303; -124.425; -768.000; -687.000
260.445; -101.925; -609.000; -613.000
260.586;   31.800;  392.000;  157.000
260.728;  -35.875; -360.000; -248.000
260.869; -122.350; -350.000; -343.000
261.011;   73.450;  706.000;  537.000
261.152;  -61.650; -479.000; -319.000
261.293;  -78.050; -576.000; -595.000
261.435;  -26.375; -219.000; -184.000
261.576;  -56.275; -455.000; -325.000
261.718;   60.700;  420.000;  470.000
261.859; -142.800; -940.000; -949.000
262.000; -138.475; -951.000;-1016.000
262.142;  -27.600;  -52.000;  -60.000
262.283; -118.475; -808.000; -691.000
262.424;  -91.725; -666.000; -625.000
262.566; -155.900;-1161.000; -983.000
262.707; -130.650; -840.000; -830.000
262.848; -121.475; -769.000; -726.000
262.990;  -54.525; -362.000; -345.000
263.131;   77.075;  650.000;  681.000
263.272;  -22.900;  -61.000;  -41.000
263.413;  -93.850; -589.000; -561.000
263.555;  -77.850; -669.000; -143.000
263.696;  -95.800; -550.000; -641.000
263.837;  -73.400; -449.000; -551.000
263.978;  -13.600;   -5.000;  -77.000
264.119;  -56.850; -283.000; -264.000
264.261; -124.600; -847.000; -630.000
264.402;  -22.050;   33.000;   40.000
264.543;  -79.100; -509.000; -524.000
264.684;  -14.275;   61.000;  -50.000
264.825;  -73.125; -816.000; -538.000
264.966;  -23.375;  -84.000;  -67.000
265.107; -111.125; -646.000; -670.000
265.248; -124.700; -825.000; -812.000
265.390;  -13.750;  152.000;   -9.000
265.531;  -21.800; -238.000; -107.000
265.672;  -89.375; -557.000; -630.000
265.813;   66.075;  563.000;  439.000
265.954; -146.775; -959.000; -940.000
266.095;  -31.825; -372.000; -322.000
266.236; -104.100; -686.000; -548.000
266.377;  -53.425; -243.000; -297.000
266.518;  -77.600; -619.000; -547.000
266.659;   29.075;  170.000;  268.000
266.800;   14.775;   83.000;   85.000
266.941;  -84.350; -487.000; -478.000
267.082;   24.675;  354.000;   99.000
267.223;  -68.400; -344.000; -273.000
267.364; -120.725; -892.000; -686.000
267.504;  -19.250;    3.000;  135.000
267.645;   -4.975;  160.000;   67.000
267.786;  -32.625; -147.000;  -86.000
267.927;  -79.950; -473.000; -379.000
268.068;  -35.825; -186.000;  -61.000
268.209;  -40.575; -175.000; -413.000
268.350;  -69.525; -388.000; -532.000
268.490;  -95.900; -648.000; -521.000
268.631;   19.275;  127.000;  225.000
268.772; -110.800; -874.000; -647.000
268.913;  -61.525; -328.000; -476.000
269.054;  -10.050; -117.000;   12.000
269.194;  -55.750; -418.000; -402.000
269.335; -160.100;-1137.000;-1074.000
269.476;  -30.200;   33.000;  -35.000
269.617;  -45.650; -347.000; -392.000
269.757; -100.575; -713.000; -646.000
269.898; -107.225; -856.000; -613.000
270.039;  -65.800; -415.000; -405.000
270.180; -144.675; -952.000; -816.000
270.320;  -31.875; -190.000; -250.000
