
Integration time [ms]: 200.000
Averaging Nr. [scans]: 10
Smoothing Nr. [pixels]: 0
Data measured with spectrometer [name]: 2101012U2
Wave   ;Sample   ;Dark     ;Reference
[nm]   ;[counts] ;[counts] ;[counts] 

197.733;  129.300;  516.000;  404.000
197.879; -150.100; -610.000; -634.000
198.025; -109.900; -475.000; -420.000
198.171; -162.500; -602.000; -612.000
198.317;  -56.200; -401.000; -316.000
198.463; -125.000; -655.000; -404.000
198.609;   77.700;  181.000; -137.000
198.755; -214.400; -644.000; -410.000
198.901; -129.600; -505.000; -424.000
199.047; -160.700; -615.000; -488.000
199.193;  -88.900; -230.000; -468.000
199.339; -101.800; -222.000; -369.000
199.485;   96.800;  330.000;  271.000
199.631;   20.200;  227.000;  310.000
199.777; -117.300; -466.000; -398.000
199.923; -139.900; -610.000; -424.000
200.069;  -11.400; -141.000;  -58.000
200.215;  121.400;  128.000;  453.000
200.361;   97.700;  243.000;  477.000
200.507; -126.600; -600.000; -373.000
200.653;  -63.600; -371.000; -194.000
200.798;  -83.100; -215.000; -125.000
200.944;    5.700; -146.000;  -41.000
201.090;   71.100;   61.000;  222.000
201.236;   -5.400; -116.000; -158.000
201.382;  255.400;  874.000;  903.000
201.528;  -22.800;  -58.000;  -48.000
201.674;  -39.300; -386.000; -293.000
201.819; -153.500; -540.000; -439.000
201.965; -187.400; -699.000; -447.000
202.111;  -46.700; -273.000; -226.000
202.257;  -83.000; -250.000; -238.000
202.402;   34.600;   13.000;  -36.000
202.548;  -56.800; -169.000; -116.000
202.694;  166.800;  410.000; -183.000
202.840; -178.100; -603.000; -531.000
202.985; -142.600; -681.000; -639.000
203.131; -258.700; -832.000; -666.000
203.277;  -42.500; -199.000; -262.000
203.423;  -96.900; -434.000; -520.000
203.568;  -88.100; -462.000; -237.000
203.714; -119.400; -535.000; -542.000
203.860; -163.900; -682.000; -641.000
204.005;   38.600;  112.000;  167.000
204.151;  142.400;  561.000;  556.000
204.296;  -95.500; -354.000; -221.000
204.442; -155.000; -600.000; -547.000
204.588; -159.100; -592.000; -579.000
204.733;   40.200;  178.000;  168.000
204.879; -292.700;-1018.000; -822.000
205.025;   13.200;  -99.000;  126.000
205.170;   -7.000;  -17.000;   94.000
205.316;  174.700;  438.000;  661.000
205.461; -181.500; -698.000; -554.000
205.607;  182.700;  609.000;  665.000
205.752; -164.300; -626.000; -551.000
205.898; -118.500; -501.000; -391.000
206.043; -123.500; -578.000; -506.000
206.189;  -96.300; -243.000; -285.000
206.334;  136.700;  554.000;  606.000
206.480;  158.100;  409.000;  239.000
206.625; -163.300; -529.000; -552.000
206.771; -109.100; -451.000; -373.000
206.916;  -42.100; -210.000; -537.000
207.062; -137.900; -545.000; -591.000
207.207; -148.900; -546.000; -443.000
207.353;  128.100;  185.000;  460.000
207.498;   21.600;  196.000;   85.000
207.643;  -86.100; -501.000; -370.000
207.789; -267.500;-1069.000; -910.000
207.934; -206.800; -665.000; -713.000
208.080;  -48.100; -154.000;   66.000
208.225;    6.200;  -22.000;  -57.000
208.370; -164.800; -727.000; -619.000
208.516; -157.500; -741.000; -487.000
208.661;  -20.900; -127.000;  -69.000
208.806;  -21.000; -165.000; -171.000
208.952; -267.200;-1044.000; -731.000
209.097;  162.900;  378.000;  349.000
209.242; -111.400; -307.000; -382.000
209.387;  133.700;  392.000;  350.000
209.533;  -91.600; -321.000; -350.000
209.678;  184.100;  472.000;  543.000
209.823;  -92.600; -408.000; -310.000
209.969; -206.700; -860.000; -757.000
210.114; -210.400; -907.000; -719.000
210.259; -244.700; -939.000; -889.000
210.404;   -9.800; -171.000;  103.000
210.549;    5.300;  108.000;    3.000
210.695;  -42.900;   -3.000;  -95.000
210.840;   93.500;   94.000;   67.000
210.985; -142.600; -484.000; -303.000
211.130;  135.300;  268.000;  406.000
211.275;   29.800;  207.000;  199.000
211.420;  -97.000; -300.000; -289.000
211.566; -149.400; -536.000; -489.000
211.711;   77.700;  218.000;  157.000
211.856; -141.100; -545.000; -519.000
212.001;   26.500;  151.000;   44.000
212.146;   30.700;  153.000;   49.000
212.291;  -46.300; -210.000; -186.000
212.436;  -51.600; -280.000;   -6.000
212.581; -173.400; -685.000; -653.000
212.726; -152.900; -487.000; -538.000
212.871;  -78.400; -552.000; -217.000
213.016; -316.900;-1172.000;-1029.000
213.161;  130.200;  406.000;  291.000
213.306; -143.100; -435.000; -577.000
213.451; -185.000; -778.000; -689.000
213.596;  -79.300; -455.000; -347.000
213.741; -118.600; -448.000; -538.000
213.886; -153.400; -498.000; -517.000
214.031;  -63.600; -294.000; -124.000
214.176; -119.300; -408.000; -341.000
214.321;  -33.900; -296.000; -157.000
214.466;  -48.700; -163.000;  -43.000
214.611;  -25.700;  -61.000;  -10.000
214.756; -262.100; -948.000; -858.000
214.901;  -25.600; -388.000; -226.000
215.046; -228.300; -797.000; -825.000
215.191;   22.400;  128.000;   35.000
215.336;  -33.800; -157.000;  -19.000
215.480; -160.500; -684.000; -505.000
215.625;  -43.500; -175.000;  -19.000
215.770; -183.400; -757.000; -662.000
215.915;   -7.000;   -5.000;  -97.000
216.060;  -13.300; -113.000;  -21.000
216.205; -211.700; -731.000; -779.000
216.349; -129.000; -470.000; -533.000
216.494; -296.500; -939.000; -867.000
216.639; -231.000; -823.000; -888.000
216.784; -173.900; -577.000; -525.000
216.929;  130.800;  392.000;  281.000
217.073;  -28.800; -244.000;  -31.000
217.218;    4.200;   78.000;  -47.000
217.363; -184.100; -656.000; -618.000
217.507; -147.600; -623.000; -588.000
217.652; -257.700; -845.000; -874.000
217.797; -165.500; -708.000; -659.000
217.942; -231.600; -856.000; -720.000
218.086;  156.000;  608.000;  539.000
218.231;   -8.000; -174.000;  -26.000
218.376;  -85.000; -337.000; -229.000
218.520;   25.400;  -41.000;   96.000
218.665;  -78.700; -338.000; -204.000
218.810; -100.300; -275.000; -233.000
218.954;   28.500;  201.000;   35.000
219.099; -204.300; -713.000; -963.000
219.243; -138.700; -589.000; -554.000
219.388;  -67.100; -264.000; -136.000
219.532;    0.100; -116.000; -116.000
219.677; -193.800; -564.000; -521.000
219.822;   19.800;   33.000;   89.000
219.966;    6.900;   17.000;  -99.000
220.111;  -57.400; -328.000;  -40.000
220.255; -204.200; -797.000; -750.000
220.400;  -42.200; -180.000; -146.000
220.544; -146.700; -516.000; -450.000
220.689;  -73.900; -422.000; -451.000
220.833;  -28.100; -123.000;  -58.000
220.978;  -81.500; -393.000; -563.000
221.122;   64.000;  319.000;  307.000
221.267; -245.800; -906.000; -837.000
221.411; -160.300; -478.000; -394.000
221.555;   -6.500; -104.000;  -23.000
221.700;  -97.000; -329.000; -222.000
221.844;   85.600;  255.000;  272.000
221.989;  -95.500; -328.000; -311.000
222.133;  -59.000; -289.000; -307.000
222.277;    7.800;    5.000;   78.000
222.422;   81.700;  227.000;  113.000
222.566;  -62.200; -381.000; -214.000
222.711; -130.900; -414.000; -479.000
222.855; -178.500; -643.000; -586.000
222.999; -189.200; -642.000; -717.000
223.144;  -66.600; -195.000; -194.000
223.288;  126.100;  423.000;  251.000
223.432;   17.600;  184.000;  230.000
223.576;   27.400;  152.000;  -21.000
223.721;   88.100;  364.000;  273.000
223.865; -132.200; -472.000; -475.000
224.009;  483.300; 1673.000; 1631.000
224.153; -150.500; -660.000; -671.000
224.298; -125.700; -531.000; -489.000
224.442;  -30.000;  -74.000;  -33.000
224.586;  -15.400; -169.000; -106.000
224.730; -212.000; -858.000; -670.000
224.875; -252.800; -739.000; -688.000
225.019;   38.000;  102.000;  188.000
225.163;  125.400;  208.000;  341.000
225.307;   58.700;   97.000;  -91.000
225.451;   91.800;  360.000;  481.000
225.595;   69.900;  264.000;  176.000
225.739;  -27.400; -170.000;  -94.000
225.884;   25.400;   86.000;    5.000
226.028; -179.400; -760.000; -626.000
226.172;  -67.300; -260.000; -273.000
226.316; -246.900; -941.000; -902.000
226.460; -155.500; -645.000; -493.000
226.604;  -98.600; -406.000; -400.000
226.748; -181.900; -836.000; -733.000
226.892;  -53.800; -227.000; -181.000
227.036; -101.700; -537.000; -447.000
227.180; -111.900; -551.000; -375.000
227.324; -147.300; -561.000; -580.000
227.468; -238.900; -819.000; -717.000
227.612;   34.200;  242.000;  -28.000
227.756; -211.100; -845.000; -698.000
227.900;  154.000;  342.000;  441.000
228.044;  -89.000; -509.000; -290.000
228.188;  146.500;  448.000;  568.000
228.332; -142.800; -546.000; -472.000
228.476;  -33.400; -223.000; -149.000
228.620;  -50.200; -210.000; -150.000
228.764;  161.400;  431.000;  349.000
228.908;  -39.100; -155.000;   30.000
229.052; -101.700; -615.000; -528.000
229.195;   -7.900; -172.000;   13.000
229.339;  -59.400; -235.000; -305.000
229.483;  -58.900;    5.000; -162.000
229.627;   11.000; -156.000;  139.000
229.771; -103.100; -218.000; -294.000
229.915;   21.100;  230.000;   79.000
230.059; -212.300; -648.000; -663.000
230.202;  -89.400; -370.000; -317.000
230.346;  -38.800; -107.000;  107.000
230.490; -148.400; -489.000; -521.000
230.634; -214.200; -736.000; -553.000
230.777;  179.200;  478.000;  509.000
230.921; -113.000; -450.000; -359.000
231.065;  -94.800; -246.000; -286.000
231.209;   47.400;  261.000;  265.000
231.352;   49.300;   54.000;   40.000
231.496;   35.200;  568.000;  188.000
231.640; -163.300; -693.000; -621.000
231.783;  137.900;  546.000;  525.000
231.927;  -76.900; -294.000; -365.000
232.071; -271.700; -962.000; -736.000
232.214; -226.800; -980.000; -764.000
232.358; -240.300; -683.000; -599.000
232.502;   -9.000;  -19.000;    7.000
232.645; -311.400;-1090.000; -927.000
232.789;  -45.600; -257.000; -218.000
232.933; -103.300; -407.000; -224.000
233.076; -252.500;-1038.000; -897.000
233.220; -204.900; -752.000; -777.000
233.363; -143.600; -669.000; -477.000
233.507;  133.500;  371.000;  129.000
233.650; -183.800; -764.000; -834.000
233.794;   81.000;  438.000;  461.000
233.938;  -97.100; -530.000; -362.000
234.081;  -19.600;  -93.000;   31.000
234.225; -145.100; -631.000; -539.000
234.368; -212.000; -773.000; -723.000
234.512;  -95.200; -385.000; -299.000
234.655; -185.200; -582.000; -555.000
234.798; -130.400; -493.000; -466.000
234.942; -286.000; -884.000;-1002.000
235.085; -159.800; -651.000; -443.000
235.229; -153.400; -405.000; -410.000
235.372; -116.400; -247.000; -191.000
235.516; -124.600; -397.000; -321.000
235.659;   45.600;   92.000;  121.000
235.802;  -43.200;  -38.000;  -22.000
235.946;   53.200;  335.000;  215.000
236.089;   64.700;  126.000;  250.000
236.233;   99.400;  275.000;  298.000
236.376;  -92.100; -235.000; -378.000
236.519;  -75.400; -297.000; -319.000
236.663;  -47.800; -215.000; -117.000
236.806; -256.800;-1029.000; -999.000
236.949;  142.600;  543.000;  431.000
237.092;  138.100;  412.000;  391.000
237.236; -181.600; -589.000; -502.000
237.379;  156.600;  352.000;  428.000
237.522; -235.300; -879.000; -768.000
237.666;  -34.700; -271.000;   18.000
237.809; -257.700; -851.000; -823.000
237.952;   82.900;  469.000;  271.000
238.095; -136.000; -447.000; -442.000
238.238;  224.100;  688.000;  700.000
238.382;   16.800;  166.000;  103.000
238.525; -129.100; -598.000; -511.000
238.668; -272.400;-1060.000; -985.000
238.811; -176.700; -638.000; -643.000
238.954; -114.800; -483.000; -334.000
239.097;  197.300;  617.000;  664.000
239.241;   60.100;  394.000;  326.000
239.384;  -43.100; -254.000; -214.000
239.527; -118.700; -424.000; -224.000
239.670; -278.200; -994.000;-1091.000
239.813; -223.000; -696.000; -658.000
239.956;  205.400;  579.000;  473.000
240.099; -224.400; -778.000; -725.000
240.242;  162.600;  428.000;  432.000
240.385;  105.200;  466.000;  450.000
240.528; -146.300; -706.000; -473.000
240.671;   25.600;  189.000;  134.000
240.814;  -45.000; -441.000; -158.000
240.957; -182.100; -767.000; -578.000
241.100; -192.900; -779.000; -755.000
241.243; -311.300;-1234.000; -893.000
241.386; -109.100; -508.000; -379.000
241.529; -172.100; -735.000; -547.000
241.672; -129.800; -566.000; -495.000
241.815; -212.700; -832.000; -808.000
241.958;  -44.600; -125.000; -182.000
242.101; -156.300; -545.000; -390.000
242.244;  -79.600; -270.000; -325.000
242.387;  -58.600; -304.000; -246.000
242.530;  117.400;  470.000;  134.000
242.673;  -62.400; -381.000; -309.000
242.815; -216.400; -925.000; -899.000
242.958; -138.700; -482.000; -381.000
243.101;   66.800;  132.000;  187.000
243.244; -182.000; -564.000; -521.000
243.387;  -91.500; -313.000; -316.000
243.530; -217.200; -657.000; -674.000
243.672;   -9.000;   43.000;  -92.000
243.815;  -67.600; -355.000; -283.000
243.958;   17.700;   98.000;  -26.000
244.101;    2.400;   59.000;  -16.000
244.243;  -12.800;  -47.000;  101.000
244.386; -247.900; -761.000; -630.000
244.529;  -43.900; -132.000; -139.000
244.672; -321.800;-1154.000; -951.000
244.814; -197.000; -621.000; -794.000
244.957;  -83.000; -380.000; -304.000
245.100; -148.000; -489.000; -489.000
245.242;  -93.500; -387.000; -374.000
245.385;   -3.000;  -59.000;  -39.000
245.528; -242.000; -871.000; -705.000
245.670;  158.400;  612.000;  634.000
245.813; -179.800; -599.000; -547.000
245.956;  -53.500; -324.000; -275.000
246.098; -172.500; -508.000; -650.000
246.241;   27.100;  194.000;   48.000
246.383;  -12.600; -119.000;  -73.000
246.526; -158.300; -454.000; -525.000
246.669; -236.600; -889.000; -780.000
246.811;   23.500;  172.000;   -1.000
246.954; -154.100; -512.000; -426.000
247.096;  -79.200;  -84.000;   -6.000
247.239; -152.600; -482.000; -445.000
247.381; -123.300; -647.000; -488.000
247.524;  204.600;  645.000;  679.000
247.666;    7.800;   58.000;   11.000
247.809; -252.600; -887.000; -691.000
247.951;   -2.400;  -75.000;  138.000
248.094;   43.100;  432.000;  308.000
248.236; -317.300;-1262.000;-1238.000
248.378;  -11.700; -356.000;  -81.000
248.521;  -43.900; -334.000; -337.000
248.663;  -68.800; -236.000; -267.000
248.806;  -14.200; -300.000; -266.000
248.948; -196.600; -886.000; -763.000
249.090;  -99.800; -428.000; -398.000
249.233;  -76.100; -344.000; -381.000
249.375; -136.800; -474.000; -451.000
249.518;  -10.500;  -83.000; -133.000
249.660;   -5.900; -103.000;    3.000
249.802; -354.500;-1303.000;-1189.000
249.945; -132.200; -612.000; -540.000
250.087; -225.200; -834.000; -768.000
250.229;  -90.500; -362.000; -480.000
250.371; -127.700; -494.000; -439.000
250.514;  -86.300; -310.000; -244.000
250.656; -126.000;   69.000;  102.000
250.798; -233.700; -849.000; -800.000
250.940; -118.900; -322.000; -322.000
251.083;  -60.100; -335.000; -111.000
251.225;  114.700;  338.000;  310.000
251.367;  -76.600; -274.000; -373.000
251.509;  -65.100; -265.000; -210.000
251.651; -189.300; -731.000; -671.000
251.794;  124.300;  538.000;  632.000
251.936; -202.000; -821.000; -747.000
252.078; -168.300; -540.000; -461.000
252.220; -136.900; -645.000; -477.000
252.362;  174.900;  344.000;  462.000
252.504; -104.500; -677.000; -584.000
252.646; -216.900; -875.000; -722.000
252.788;   12.900;   14.000; -128.000
252.931;  -48.500; -257.000; -253.000
253.073;  -55.400; -376.000; -317.000
253.215;   11.700;  141.000;  122.000
253.357;  -33.900;   82.000; -153.000
253.499;  -98.500; -374.000; -234.000
253.641; -153.600; -749.000; -594.000
253.783; -163.300; -609.000; -527.000
253.925; -161.300; -586.000; -591.000
254.067; -229.600; -744.000; -667.000
254.209;  -66.600; -391.000; -259.000
254.351; -294.400; -865.000; -883.000
254.493; -108.800; -441.000; -417.000
254.635; -207.800; -936.000; -818.000
254.777; -183.100; -752.000; -687.000
254.918; -154.700; -512.000; -430.000
255.060; -122.800; -551.000; -395.000
255.202;  -96.800; -473.000; -261.000
255.344; -162.300; -658.000; -455.000
255.486; -126.100; -471.000; -406.000
255.628; -199.500; -780.000; -781.000
255.770; -179.000; -676.000; -536.000
255.912; -102.700; -559.000; -468.000
256.053; -192.200; -730.000; -508.000
256.195;  344.000; 1008.000;  903.000
256.337; -208.000; -861.000; -595.000
256.479;  139.500;  532.000;  416.000
256.621;  -94.700; -394.000; -212.000
256.762; -169.800; -789.000; -742.000
256.904;  146.400;  485.000;  487.000
257.046;  -50.100; -381.000; -271.000
257.188; -104.200; -351.000; -264.000
257.329; -136.000; -525.000; -464.000
257.471; -220.500; -939.000; -807.000
257.613; -118.300; -584.000; -498.000
257.755; -306.800;-1073.000; -982.000
257.896;   94.400;  286.000;  392.000
258.038; -139.900; -403.000; -352.000
258.180;  -47.100; -354.000; -279.000
258.321; -156.500; -581.000; -457.000
258.463;    9.300;  -71.000;  133.000
258.605; -199.700; -562.000; -570.000
258.746; -196.200; -886.000; -772.000
258.888; -299.300;-1026.000;-1020.000
259.029;   77.500;  121.000;   -8.000
259.171; -182.500; -614.000; -550.000
259.313;   22.700;  -49.000;  -47.000
259.454; -128.300; -536.000; -414.000
259.596; -104.200; -483.000; -390.000
259.737; -143.700; -590.000; -474.000
259.879;   97.700;  217.000;  311.000
260.020;  228.100;  901.000;  636.000
260.162;  -29.700; -146.000; -253.000
260.303; -201.200; -768.000; -687.000
260.445; -169.500; -609.000; -613.000
260.586;   86.600;  392.000;  157.000
260.728;  -96.600; -360.000; -248.000
260.869; -115.200; -350.000; -343.000
261.011;  189.400;  706.000;  537.000
261.152;  -78.000; -479.000; -319.000
261.293; -125.000; -576.000; -595.000
261.435;  -56.700; -219.000; -184.000
261.576;  -90.700; -455.000; -325.000
261.718;  158.000;  420.000;  470.000
261.859; -236.000; -940.000; -949.000
262.000; -247.800; -951.000;-1016.000
262.142;  -12.300;  -52.000;  -60.000
262.283; -226.300; -808.000; -691.000
262.424; -161.300; -666.000; -625.000
262.566; -329.600;-1161.000; -983.000
262.707; -200.200; -840.000; -830.000
262.848; -251.600; -769.000; -726.000
262.990;  -65.500; -362.000; -345.000
263.131;  209.100;  650.000;  681.000
263.272;   21.900;  -61.000;  -41.000
263.413; -169.900; -589.000; -561.000
263.555; -109.500; -669.000; -143.000
263.696; -155.500; -550.000; -641.000
263.837; -125.100; -449.000; -551.000
263.978;   -5.900;   -5.000;  -77.000
264.119;  -77.100; -283.000; -264.000
264.261; -233.200; -847.000; -630.000
264.402;    6.100;   33.000;   40.000
264.543; -134.500; -509.000; -524.000
264.684;   -0.600;   61.000;  -50.000
264.825; -109.000; -816.000; -538.000
264.966;   -6.200;  -84.000;  -67.000
265.107; -207.500; -646.000; -670.000
265.248; -222.600; -825.000; -812.000
265.390;    1.700;  152.000;   -9.000
265.531;  -37.800; -238.000; -107.000
265.672; -205.500; -557.000; -630.000
265.813;  158.200;  563.000;  439.000
265.954; -277.300; -959.000; -940.000
266.095;   -5.000; -372.000; -322.000
266.236; -200.100; -686.000; -548.000
266.377;  -49.000; -243.000; -297.000
266.518; -130.000; -619.000; -547.000
266.659;   80.100;  170.000;  268.000
266.800;   28.400;   83.000;   85.000
266.941; -141.500; -487.000; -478.000
267.082;   30.600;  354.000;   99.000
267.223;  -82.700; -344.000; -273.000
267.364; -245.900; -892.000; -686.000
267.504;  -40.300;    3.000;  135.000
267.645;   23.600;  160.000;   67.000
267.786;  -37.900; -147.000;  -86.000
267.927; -129.500; -473.000; -379.000
268.068;    3.400; -186.000;  -61.000
268.209;  -70.100; -175.000; -413.000
268.350; -122.300; -388.000; -532.000
268.490; -193.500; -648.000; -521.000
268.631;   65.800;  127.000;  225.000
268.772; -204.900; -874.000; -647.000
268.913;  -96.000; -328.000; -476.000
269.054;  -23.500; -117.000;   12.000
269.194;  -88.000; -418.000; -402.000
269.335; -327.100;-1137.000;-1074.000
269.476;  -34.800;   33.000;  -35.000
269.617; -100.200; -347.000; -392.000
269.757; -168.700; -713.000; -646.000
269.898; -185.200; -856.000; -613.000
270.039; -122.600; -415.000; -405.000
270.180; -275.500; -952.000; -816.000
270.320;  -17.600; -190.000; -250.000
