
Integration time [ms]: 100.000
Averaging Nr. [scans]: 40
Smoothing Nr. [pixels]: 0
Data measured with spectrometer [name]: 2101012U2
Wave   ;Sample   ;Dark     ;Reference
[nm]   ;[counts] ;[counts] ;[counts] 

197.733;   60.425;  516.000;  404.000
197.879;  -71.550; -610.000; -634.000
198.025;  -43.700; -475.000; -420.000
198.171;  -65.900; -602.000; -612.000
198.317;  -36.900; -401.000; -316.000
198.463;  -58.625; -655.000; -404.000
198.609;   23.750;  181.000; -137.000
198.755;  -89.625; -644.000; -410.000
198.901;  -62.200; -505.000; -424.000
199.047;  -56.900; -615.000; -488.000
199.193;  -50.725; -230.000; -468.000
199.339;  -57.250; -222.000; -369.000
199.485;   35.775;  330.000;  271.000
199.631;   28.225;  227.000;  310.000
199.777;  -58.400; -466.000; -398.000
199.923;  -59.625; -610.000; -424.000
200.069;   -7.600; -141.000;  -58.000
200.215;   67.300;  128.000;  453.000
200.361;   56.250;  243.000;  477.000
200.507;  -61.150; -600.000; -373.000
200.653;  -27.225; -371.000; -194.000
200.798;  -34.250; -215.000; -125.000
200.944;   -5.750; -146.000;  -41.000
201.090;   41.400;   61.000;  222.000
201.236;    2.025; -116.000; -158.000
201.382;  139.150;  874.000;  903.000
201.528;   -4.300;  -58.000;  -48.000
201.674;  -36.250; -386.000; -293.000
201.819;  -59.100; -540.000; -439.000
201.965;  -78.100; -699.000; -447.000
202.111;  -16.325; -273.000; -226.000
202.257;  -33.825; -250.000; -238.000
202.402;   12.450;   13.000;  -36.000
202.548;  -33.625; -169.000; -116.000
202.694;   88.525;  410.000; -183.000
202.840;  -77.875; -603.000; -531.000
202.985;  -74.700; -681.000; -639.000
203.131; -102.075; -832.000; -666.000
203.277;  -16.925; -199.000; -262.000
203.423;  -42.325; -434.000; -520.000
203.568;  -62.775; -462.000; -237.000
203.714;  -60.775; -535.000; -542.000
203.860;  -94.975; -682.000; -641.000
204.005;   13.775;  112.000;  167.000
204.151;   79.650;  561.000;  556.000
204.296;  -48.550; -354.000; -221.000
204.442;  -70.875; -600.000; -547.000
204.588;  -65.475; -592.000; -579.000
204.733;   25.900;  178.000;  168.000
204.879; -126.450;-1018.000; -822.000
205.025;   12.500;  -99.000;  126.000
205.170;  -12.375;  -17.000;   94.000
205.316;   76.775;  438.000;  661.000
205.461;  -78.750; -698.000; -554.000
205.607;   92.900;  609.000;  665.000
205.752;  -82.225; -626.000; -551.000
205.898;  -45.500; -501.000; -391.000
206.043;  -64.300; -578.000; -506.000
206.189;  -29.775; -243.000; -285.000
206.334;   75.475;  554.000;  606.000
206.480;   89.400;  409.000;  239.000
206.625;  -77.500; -529.000; -552.000
206.771;  -53.800; -451.000; -373.000
206.916;  -23.075; -210.000; -537.000
207.062;  -91.950; -545.000; -591.000
207.207;  -50.775; -546.000; -443.000
207.353;   65.025;  185.000;  460.000
207.498;   18.950;  196.000;   85.000
207.643;  -65.850; -501.000; -370.000
207.789; -125.600;-1069.000; -910.000
207.934; -101.500; -665.000; -713.000
208.080;  -18.600; -154.000;   66.000
208.225;   -6.875;  -22.000;  -57.000
208.370;  -85.350; -727.000; -619.000
208.516;  -73.225; -741.000; -487.000
208.661;  -23.775; -127.000;  -69.000
208.806;  -24.725; -165.000; -171.000
208.952; -125.825;-1044.000; -731.000
209.097;   67.850;  378.000;  349.000
209.242;  -40.725; -307.000; -382.000
209.387;   68.000;  392.000;  350.000
209.533;  -41.000; -321.000; -350.000
209.678;   72.750;  472.000;  543.000
209.823;  -48.850; -408.000; -310.000
209.969; -102.575; -860.000; -757.000
210.114; -110.400; -907.000; -719.000
210.259; -110.000; -939.000; -889.000
210.404;    7.400; -171.000;  103.000
210.549;    6.700;  108.000;    3.000
210.695;  -15.325;   -3.000;  -95.000
210.840;   20.775;   94.000;   67.000
210.985;  -54.500; -484.000; -303.000
211.130;   65.250;  268.000;  406.000
211.275;   21.275;  207.000;  199.000
211.420;  -54.625; -300.000; -289.000
211.566;  -70.075; -536.000; -489.000
211.711;   20.775;  218.000;  157.000
211.856;  -62.425; -545.000; -519.000
212.001;    8.775;  151.000;   44.000
212.146;   25.175;  153.000;   49.000
212.291;  -22.625; -210.000; -186.000
212.436;  -24.575; -280.000;   -6.000
212.581;  -86.025; -685.000; -653.000
212.726;  -69.125; -487.000; -538.000
212.871;  -57.875; -552.000; -217.000
213.016; -152.525;-1172.000;-1029.000
213.161;   73.375;  406.000;  291.000
213.306;  -66.625; -435.000; -577.000
213.451;  -94.700; -778.000; -689.000
213.596;  -45.850; -455.000; -347.000
213.741;  -38.600; -448.000; -538.000
213.886;  -88.600; -498.000; -517.000
214.031;  -25.625; -294.000; -124.000
214.176;  -44.425; -408.000; -341.000
214.321;  -18.025; -296.000; -157.000
214.466;  -23.125; -163.000;  -43.000
214.611;   -4.175;  -61.000;  -10.000
214.756; -121.950; -948.000; -858.000
214.901;  -24.750; -388.000; -226.000
215.046; -109.625; -797.000; -825.000
215.191;   19.550;  128.000;   35.000
215.336;  -10.475; -157.000;  -19.000
215.480;  -64.000; -684.000; -505.000
215.625;  -15.275; -175.000;  -19.000
215.770;  -82.100; -757.000; -662.000
215.915;   -7.275;   -5.000;  -97.000
216.060;  -19.850; -113.000;  -21.000
216.205;  -99.625; -731.000; -779.000
216.349;  -57.850; -470.000; -533.000
216.494; -132.725; -939.000; -867.000
216.639;  -98.975; -823.000; -888.000
216.784;  -86.200; -577.000; -525.000
216.929;   33.175;  392.000;  281.000
217.073;  -12.825; -244.000;  -31.000
217.218;    4.325;   78.000;  -47.000
217.363;  -88.800; -656.000; -618.000
217.507;  -80.175; -623.000; -588.000
217.652; -122.775; -845.000; -874.000
217.797; -100.450; -708.000; -659.000
217.942; -106.100; -856.000; -720.000
218.086;   64.725;  608.000;  539.000
218.231;  -14.825; -174.000;  -26.000
218.376;  -39.200; -337.000; -229.000
218.520;    6.100;  -41.000;   96.000
218.665;  -28.025; -338.000; -204.000
218.810;  -37.200; -275.000; -233.000
218.954;   17.575;  201.000;   35.000
219.099; -115.200; -713.000; -963.000
219.243;  -74.175; -589.000; -554.000
219.388;  -25.700; -264.000; -136.000
219.532;  -16.475; -116.000; -116.000
219.677;  -70.500; -564.000; -521.000
219.822;    2.800;   33.000;   89.000
219.966;   17.875;   17.000;  -99.000
220.111;  -26.000; -328.000;  -40.000
220.255;  -88.975; -797.000; -750.000
220.400;  -13.575; -180.000; -146.000
220.544;  -65.650; -516.000; -450.000
220.689;  -69.750; -422.000; -451.000
220.833;  -19.025; -123.000;  -58.000
220.978;  -42.350; -393.000; -563.000
221.122;   30.400;  319.000;  307.000
221.267; -134.000; -906.000; -837.000
221.411;  -58.700; -478.000; -394.000
221.555;   -4.900; -104.000;  -23.000
221.700;  -42.250; -329.000; -222.000
221.844;   20.350;  255.000;  272.000
221.989;  -28.325; -328.000; -311.000
222.133;  -39.825; -289.000; -307.000
222.277;   -1.050;    5.000;   78.000
222.422;   14.975;  227.000;  113.000
222.566;  -36.150; -381.000; -214.000
222.711;  -58.075; -414.000; -479.000
222.855;  -79.600; -643.000; -586.000
222.999;  -88.200; -642.000; -717.000
223.144;  -29.825; -195.000; -194.000
223.288;   47.850;  423.000;  251.000
223.432;   19.200;  184.000;  230.000
223.576;   21.200;  152.000;  -21.000
223.721;   45.175;  364.000;  273.000
223.865;  -63.525; -472.000; -475.000
224.009;  249.375; 1673.000; 1631.000
224.153;  -91.600; -660.000; -671.000
224.298;  -54.225; -531.000; -489.000
224.442;    3.375;  -74.000;  -33.000
224.586;  -12.525; -169.000; -106.000
224.730; -102.700; -858.000; -670.000
224.875; -104.175; -739.000; -688.000
225.019;    7.350;  102.000;  188.000
225.163;   60.500;  208.000;  341.000
225.307;   16.275;   97.000;  -91.000
225.451;   49.675;  360.000;  481.000
225.595;   24.850;  264.000;  176.000
225.739;  -13.100; -170.000;  -94.000
225.884;    4.425;   86.000;    5.000
226.028; -101.550; -760.000; -626.000
226.172;  -45.800; -260.000; -273.000
226.316; -114.325; -941.000; -902.000
226.460;  -73.900; -645.000; -493.000
226.604;  -43.675; -406.000; -400.000
226.748;  -97.225; -836.000; -733.000
226.892;  -20.350; -227.000; -181.000
227.036;  -49.125; -537.000; -447.000
227.180;  -51.700; -551.000; -375.000
227.324;  -69.675; -561.000; -580.000
227.468; -114.725; -819.000; -717.000
227.612;    4.750;  242.000;  -28.000
227.756;  -98.700; -845.000; -698.000
227.900;   57.625;  342.000;  441.000
228.044;  -59.125; -509.000; -290.000
228.188;   68.775;  448.000;  568.000
228.332;  -82.375; -546.000; -472.000
228.476;  -21.650; -223.000; -149.000
228.620;  -34.450; -210.000; -150.000
228.764;   48.900;  431.000;  349.000
228.908;  -11.800; -155.000;   30.000
229.052;  -62.550; -615.000; -528.000
229.195;   -9.725; -172.000;   13.000
229.339;  -29.800; -235.000; -305.000
229.483;  -14.875;    5.000; -162.000
229.627;  -14.100; -156.000;  139.000
229.771;  -49.300; -218.000; -294.000
229.915;    7.650;  230.000;   79.000
230.059;  -98.025; -648.000; -663.000
230.202;  -32.550; -370.000; -317.000
230.346;   -8.600; -107.000;  107.000
230.490;  -62.925; -489.000; -521.000
230.634; -115.375; -736.000; -553.000
230.777;   68.850;  478.000;  509.000
230.921;  -45.250; -450.000; -359.000
231.065;  -43.050; -246.000; -286.000
231.209;   36.300;  261.000;  265.000
231.352;   15.975;   54.000;   40.000
231.496;   11.175;  568.000;  188.000
231.640;  -82.025; -693.000; -621.000
231.783;   75.500;  546.000;  525.000
231.927;  -53.425; -294.000; -365.000
232.071; -120.425; -962.000; -736.000
232.214; -114.650; -980.000; -764.000
232.358;  -93.000; -683.000; -599.000
232.502;    7.900;  -19.000;    7.000
232.645; -131.750;-1090.000; -927.000
232.789;  -38.375; -257.000; -218.000
232.933;  -48.475; -407.000; -224.000
233.076; -129.075;-1038.000; -897.000
233.220; -114.050; -752.000; -777.000
233.363;  -85.350; -669.000; -477.000
233.507;   65.175;  371.000;  129.000
233.650; -103.150; -764.000; -834.000
233.794;   37.150;  438.000;  461.000
233.938;  -50.400; -530.000; -362.000
234.081;  -15.650;  -93.000;   31.000
234.225;  -69.025; -631.000; -539.000
234.368; -110.525; -773.000; -723.000
234.512;  -42.475; -385.000; -299.000
234.655;  -90.550; -582.000; -555.000
234.798;  -66.475; -493.000; -466.000
234.942; -129.800; -884.000;-1002.000
235.085;  -78.600; -651.000; -443.000
235.229;  -77.975; -405.000; -410.000
235.372;  -46.500; -247.000; -191.000
235.516;  -57.800; -397.000; -321.000
235.659;   28.825;   92.000;  121.000
235.802;   -7.475;  -38.000;  -22.000
235.946;   31.525;  335.000;  215.000
236.089;   28.100;  126.000;  250.000
236.233;   39.975;  275.000;  298.000
236.376;  -37.500; -235.000; -378.000
236.519;  -47.775; -297.000; -319.000
236.663;  -21.825; -215.000; -117.000
236.806; -142.800;-1029.000; -999.000
236.949;   79.775;  543.000;  431.000
237.092;   56.275;  412.000;  391.000
237.236;  -88.775; -589.000; -502.000
237.379;   56.575;  352.000;  428.000
237.522; -125.550; -879.000; -768.000
237.666;  -19.175; -271.000;   18.000
237.809; -131.000; -851.000; -823.000
237.952;   36.600;  469.000;  271.000
238.095;  -70.400; -447.000; -442.000
238.238;   98.550;  688.000;  700.000
238.382;    7.925;  166.000;  103.000
238.525;  -75.350; -598.000; -511.000
238.668; -139.525;-1060.000; -985.000
238.811;  -89.100; -638.000; -643.000
238.954;  -54.000; -483.000; -334.000
239.097;   93.175;  617.000;  664.000
239.241;   30.350;  394.000;  326.000
239.384;  -42.900; -254.000; -214.000
239.527;  -64.400; -424.000; -224.000
239.670; -153.975; -994.000;-1091.000
239.813;  -99.575; -696.000; -658.000
239.956;   78.100;  579.000;  473.000
240.099; -118.975; -778.000; -725.000
240.242;   65.250;  428.000;  432.000
240.385;   37.300;  466.000;  450.000
240.528;  -71.350; -706.000; -473.000
240.671;   17.350;  189.000;  134.000
240.814;  -43.500; -441.000; -158.000
240.957; -113.800; -767.000; -578.000
241.100;  -98.150; -779.000; -755.000
241.243; -152.800;-1234.000; -893.000
241.386;  -65.050; -508.000; -379.000
241.529;  -79.750; -735.000; -547.000
241.672;  -66.250; -566.000; -495.000
241.815; -120.700; -832.000; -808.000
241.958;  -35.075; -125.000; -182.000
242.101;  -83.125; -545.000; -390.000
242.244;  -38.150; -270.000; -325.000
242.387;  -35.775; -304.000; -246.000
242.530;   41.150;  470.000;  134.000
242.673;  -40.700; -381.000; -309.000
242.815; -126.225; -925.000; -899.000
242.958;  -58.900; -482.000; -381.000
243.101;   -2.800;  132.000;  187.000
243.244;  -75.125; -564.000; -521.000
243.387;  -46.575; -313.000; -316.000
243.530; -101.025; -657.000; -674.000
243.672;  -13.325;   43.000;  -92.000
243.815;  -50.175; -355.000; -283.000
243.958;    2.550;   98.000;  -26.000
244.101;    3.625;   59.000;  -16.000
244.243;  -10.100;  -47.000;  101.000
244.386; -110.325; -761.000; -630.000
244.529;  -18.750; -132.000; -139.000
244.672; -151.575;-1154.000; -951.000
244.814; -104.700; -621.000; -794.000
244.957;  -57.925; -380.000; -304.000
245.100;  -94.175; -489.000; -489.000
245.242;  -62.200; -387.000; -374.000
245.385;  -11.050;  -59.000;  -39.000
245.528; -123.225; -871.000; -705.000
245.670;   86.525;  612.000;  634.000
245.813;  -93.625; -599.000; -547.000
245.956;  -40.400; -324.000; -275.000
246.098;  -76.375; -508.000; -650.000
246.241;    1.150;  194.000;   48.000
246.383;  -13.275; -119.000;  -73.000
246.526;  -77.825; -454.000; -525.000
246.669; -123.100; -889.000; -780.000
246.811;   16.900;  172.000;   -1.000
246.954;  -65.925; -512.000; -426.000
247.096;  -36.275;  -84.000;   -6.000
247.239;  -71.275; -482.000; -445.000
247.381;  -70.975; -647.000; -488.000
247.524;   91.000;  645.000;  679.000
247.666;   -3.925;   58.000;   11.000
247.809; -107.900; -887.000; -691.000
247.951;   -1.875;  -75.000;  138.000
248.094;   28.600;  432.000;  308.000
248.236; -163.500;-1262.000;-1238.000
248.378;    7.025; -356.000;  -81.000
248.521;  -24.775; -334.000; -337.000
248.663;  -48.225; -236.000; -267.000
248.806;  -25.125; -300.000; -266.000
248.948;  -91.950; -886.000; -763.000
249.090;  -56.175; -428.000; -398.000
249.233;  -49.225; -344.000; -381.000
249.375;  -63.725; -474.000; -451.000
249.518;  -18.550;  -83.000; -133.000
249.660;  -18.250; -103.000;    3.000
249.802; -167.675;-1303.000;-1189.000
249.945;  -70.675; -612.000; -540.000
250.087; -105.125; -834.000; -768.000
250.229;  -58.425; -362.000; -480.000
250.371;  -58.550; -494.000; -439.000
250.514;  -52.950; -310.000; -244.000
250.656;   -6.650;   69.000;  102.000
250.798; -114.450; -849.000; -800.000
250.940;  -65.050; -322.000; -322.000
251.083;  -29.125; -335.000; -111.000
251.225;   59.350;  338.000;  310.000
251.367;  -42.350; -274.000; -373.000
251.509;  -29.175; -265.000; -210.000
251.651; -111.825; -731.000; -671.000
251.794;   46.700;  538.000;  632.000
251.936; -102.250; -821.000; -747.000
252.078;  -80.250; -540.000; -461.000
252.220;  -90.650; -645.000; -477.000
252.362;   87.875;  344.000;  462.000
252.504;  -77.025; -677.000; -584.000
252.646; -118.200; -875.000; -722.000
252.788;   -5.675;   14.000; -128.000
252.931;  -42.525; -257.000; -253.000
253.073;  -58.775; -376.000; -317.000
253.215;   -4.450;  141.000;  122.000
253.357;  -13.350;   82.000; -153.000
253.499;  -46.300; -374.000; -234.000
253.641;  -91.775; -749.000; -594.000
253.783;  -92.150; -609.000; -527.000
253.925;  -93.100; -586.000; -591.000
254.067; -102.625; -744.000; -667.000
254.209;  -17.225; -391.000; -259.000
254.351; -125.225; -865.000; -883.000
254.493;  -65.900; -441.000; -417.000
254.635; -132.475; -936.000; -818.000
254.777;  -83.475; -752.000; -687.000
254.918;  -80.525; -512.000; -430.000
255.060;  -66.225; -551.000; -395.000
255.202;  -58.900; -473.000; -261.000
255.344;  -78.150; -658.000; -455.000
255.486;  -66.100; -471.000; -406.000
255.628; -106.175; -780.000; -781.000
255.770;  -93.275; -676.000; -536.000
255.912;  -66.100; -559.000; -468.000
256.053;  -83.175; -730.000; -508.000
256.195;  153.975; 1008.000;  903.000
256.337; -109.500; -861.000; -595.000
256.479;   65.025;  532.000;  416.000
256.621;  -55.250; -394.000; -212.000
256.762;  -99.275; -789.000; -742.000
256.904;   56.725;  485.000;  487.000
257.046;  -43.350; -381.000; -271.000
257.188;  -41.025; -351.000; -264.000
257.329;  -70.725; -525.000; -464.000
257.471; -120.250; -939.000; -807.000
257.613;  -69.425; -584.000; -498.000
257.755; -145.175;-1073.000; -982.000
257.896;   27.900;  286.000;  392.000
258.038;  -70.800; -403.000; -352.000
258.180;  -47.050; -354.000; -279.000
258.321;  -87.650; -581.000; -457.000
258.463;  -13.975;  -71.000;  133.000
258.605;  -71.800; -562.000; -570.000
258.746; -108.825; -886.000; -772.000
258.888; -133.400;-1026.000;-1020.000
259.029;   12.250;  121.000;   -8.000
259.171;  -93.775; -614.000; -550.000
259.313;   -0.850;  -49.000;  -47.000
259.454;  -79.975; -536.000; -414.000
259.596;  -52.950; -483.000; -390.000
259.737;  -67.200; -590.000; -474.000
259.879;   23.075;  217.000;  311.000
260.020;   81.525;  901.000;  636.000
260.162;  -28.750; -146.000; -253.000
260.303; -113.325; -768.000; -687.000
260.445;  -87.400; -609.000; -613.000
260.586;   30.525;  392.000;  157.000
260.728;  -52.600; -360.000; -248.000
260.869;  -69.425; -350.000; -343.000
261.011;   79.900;  706.000;  537.000
261.152;  -57.450; -479.000; -319.000
261.293;  -83.725; -576.000; -595.000
261.435;  -28.925; -219.000; -184.000
261.576;  -60.475; -455.000; -325.000
261.718;   48.125;  420.000;  470.000
261.859; -134.075; -940.000; -949.000
262.000; -120.150; -951.000;-1016.000
262.142;  -22.350;  -52.000;  -60.000
262.283; -113.175; -808.000; -691.000
262.424;  -90.100; -666.000; -625.000
262.566; -160.050;-1161.000; -983.000
262.707; -118.225; -840.000; -830.000
262.848; -122.875; -769.000; -726.000
262.990;  -65.150; -362.000; -345.000
263.131;   82.500;  650.000;  681.000
263.272;   -3.750;  -61.000;  -41.000
263.413;  -89.725; -589.000; -561.000
263.555;  -79.075; -669.000; -143.000
263.696;  -94.100; -550.000; -641.000
263.837;  -69.475; -449.000; -551.000
263.978;   -4.800;   -5.000;  -77.000
264.119;  -42.925; -283.000; -264.000
264.261; -124.075; -847.000; -630.000
264.402;  -13.500;   33.000;   40.000
264.543;  -94.050; -509.000; -524.000
264.684;  -14.325;   61.000;  -50.000
264.825;  -71.025; -816.000; -538.000
264.966;   -9.200;  -84.000;  -67.000
265.107; -105.300; -646.000; -670.000
265.248; -116.825; -825.000; -812.000
265.390;   -5.925;  152.000;   -9.000
265.531;  -23.300; -238.000; -107.000
265.672;  -75.475; -557.000; -630.000
265.813;   61.450;  563.000;  439.000
265.954; -153.100; -959.000; -940.000
266.095;  -18.850; -372.000; -322.000
266.236; -104.200; -686.000; -548.000
266.377;  -42.325; -243.000; -297.000
266.518;  -70.600; -619.000; -547.000
266.659;   22.225;  170.000;  268.000
266.800;   26.775;   83.000;   85.000
266.941;  -90.250; -487.000; -478.000
267.082;   37.400;  354.000;   99.000
267.223;  -56.725; -344.000; -273.000
267.364; -118.875; -892.000; -686.000
267.504;  -29.250;    3.000;  135.000
267.645;  -10.000;  160.000;   67.000
267.786;  -35.100; -147.000;  -86.000
267.927;  -80.200; -473.000; -379.000
268.068;  -28.850; -186.000;  -61.000
268.209;  -51.150; -175.000; -413.000
268.350;  -67.750; -388.000; -532.000
268.490;  -81.050; -648.000; -521.000
268.631;   31.250;  127.000;  225.000
268.772; -109.525; -874.000; -647.000
268.913;  -57.225; -328.000; -476.000
269.054;   -2.775; -117.000;   12.000
269.194;  -58.925; -418.000; -402.000
269.335; -160.375;-1137.000;-1074.000
269.476;  -25.325;   33.000;  -35.000
269.617;  -42.325; -347.000; -392.000
269.757;  -91.875; -713.000; -646.000
269.898; -108.975; -856.000; -613.000
270.039;  -76.600; -415.000; -405.000
270.180; -130.800; -952.000; -816.000
270.320;  -26.450; -190.000; -250.000
