
Integration time [ms]: 100.000
Averaging Nr. [scans]: 40
Smoothing Nr. [pixels]: 0
Data measured with spectrometer [name]: 2101012U2
Wave   ;Sample   ;Dark     ;Reference
[nm]   ;[counts] ;[counts] ;[counts] 

197.733;   58.750;  516.000;  404.000
197.879;  -83.500; -610.000; -634.000
198.025;  -50.975; -475.000; -420.000
198.171;  -74.800; -602.000; -612.000
198.317;  -40.225; -401.000; -316.000
198.463;  -68.700; -655.000; -404.000
198.609;   23.500;  181.000; -137.000
198.755;  -79.900; -644.000; -410.000
198.901;  -60.300; -505.000; -424.000
199.047;  -73.500; -615.000; -488.000
199.193;  -39.925; -230.000; -468.000
199.339;  -50.350; -222.000; -369.000
199.485;   41.100;  330.000;  271.000
199.631;   14.800;  227.000;  310.000
199.777;  -56.375; -466.000; -398.000
199.923;  -62.275; -610.000; -424.000
200.069;   -1.625; -141.000;  -58.000
200.215;   55.425;  128.000;  453.000
200.361;   35.850;  243.000;  477.000
200.507;  -68.950; -600.000; -373.000
200.653;  -26.100; -371.000; -194.000
200.798;  -35.825; -215.000; -125.000
200.944;   -4.925; -146.000;  -41.000
201.090;   29.425;   61.000;  222.000
201.236;    1.150; -116.000; -158.000
201.382;  113.550;  874.000;  903.000
201.528;   -8.175;  -58.000;  -48.000
201.674;  -46.725; -386.000; -293.000
201.819;  -60.650; -540.000; -439.000
201.965;  -86.675; -699.000; -447.000
202.111;  -20.150; -273.000; -226.000
202.257;  -38.200; -250.000; -238.000
202.402;    7.975;   13.000;  -36.000
202.548;  -44.350; -169.000; -116.000
202.694;   85.400;  410.000; -183.000
202.840;  -74.025; -603.000; -531.000
202.985;  -66.675; -681.000; -639.000
203.131; -108.325; -832.000; -666.000
203.277;  -27.025; -199.000; -262.000
203.423;  -49.600; -434.000; -520.000
203.568;  -38.325; -462.000; -237.000
203.714;  -62.525; -535.000; -542.000
203.860;  -83.375; -682.000; -641.000
204.005;   23.575;  112.000;  167.000
204.151;   66.525;  561.000;  556.000
204.296;  -55.525; -354.000; -221.000
204.442;  -70.125; -600.000; -547.000
204.588;  -80.175; -592.000; -579.000
204.733;   21.100;  178.000;  168.000
204.879; -135.375;-1018.000; -822.000
205.025;   13.450;  -99.000;  126.000
205.170;   -0.650;  -17.000;   94.000
205.316;   78.875;  438.000;  661.000
205.461;  -83.100; -698.000; -554.000
205.607;   67.850;  609.000;  665.000
205.752;  -84.800; -626.000; -551.000
205.898;  -54.300; -501.000; -391.000
206.043;  -72.450; -578.000; -506.000
206.189;  -49.225; -243.000; -285.000
206.334;   71.025;  554.000;  606.000
206.480;   83.150;  409.000;  239.000
206.625;  -83.375; -529.000; -552.000
206.771;  -48.750; -451.000; -373.000
206.916;  -34.300; -210.000; -537.000
207.062;  -78.375; -545.000; -591.000
207.207;  -74.300; -546.000; -443.000
207.353;   45.650;  185.000;  460.000
207.498;   20.250;  196.000;   85.000
207.643;  -56.450; -501.000; -370.000
207.789; -120.250;-1069.000; -910.000
207.934;  -86.925; -665.000; -713.000
208.080;  -16.650; -154.000;   66.000
208.225;    4.025;  -22.000;  -57.000
208.370;  -87.800; -727.000; -619.000
208.516;  -67.950; -741.000; -487.000
208.661;  -35.800; -127.000;  -69.000
208.806;  -26.000; -165.000; -171.000
208.952; -127.925;-1044.000; -731.000
209.097;   74.450;  378.000;  349.000
209.242;  -39.800; -307.000; -382.000
209.387;   67.825;  392.000;  350.000
209.533;  -33.825; -321.000; -350.000
209.678;   97.650;  472.000;  543.000
209.823;  -46.500; -408.000; -310.000
209.969; -103.325; -860.000; -757.000
210.114; -110.300; -907.000; -719.000
210.259; -120.800; -939.000; -889.000
210.404;  -12.800; -171.000;  103.000
210.549;   20.350;  108.000;    3.000
210.695;  -17.875;   -3.000;  -95.000
210.840;   41.000;   94.000;   67.000
210.985;  -84.300; -484.000; -303.000
211.130;   74.425;  268.000;  406.000
211.275;    6.450;  207.000;  199.000
211.420;  -43.775; -300.000; -289.000
211.566;  -67.875; -536.000; -489.000
211.711;   34.600;  218.000;  157.000
211.856;  -58.375; -545.000; -519.000
212.001;    8.250;  151.000;   44.000
212.146;   31.575;  153.000;   49.000
212.291;  -32.600; -210.000; -186.000
212.436;  -21.100; -280.000;   -6.000
212.581;  -78.750; -685.000; -653.000
212.726;  -81.875; -487.000; -538.000
212.871;  -42.700; -552.000; -217.000
213.016; -151.025;-1172.000;-1029.000
213.161;   72.600;  406.000;  291.000
213.306;  -77.200; -435.000; -577.000
213.451;  -89.050; -778.000; -689.000
213.596;  -57.525; -455.000; -347.000
213.741;  -39.700; -448.000; -538.000
213.886;  -83.675; -498.000; -517.000
214.031;  -19.850; -294.000; -124.000
214.176;  -62.750; -408.000; -341.000
214.321;  -20.650; -296.000; -157.000
214.466;  -32.100; -163.000;  -43.000
214.611;    2.325;  -61.000;  -10.000
214.756; -121.900; -948.000; -858.000
214.901;  -29.650; -388.000; -226.000
215.046; -134.500; -797.000; -825.000
215.191;   40.575;  128.000;   35.000
215.336;  -23.775; -157.000;  -19.000
215.480;  -59.175; -684.000; -505.000
215.625;  -12.200; -175.000;  -19.000
215.770;  -95.275; -757.000; -662.000
215.915;   -5.575;   -5.000;  -97.000
216.060;  -10.050; -113.000;  -21.000
216.205; -115.975; -731.000; -779.000
216.349;  -72.425; -470.000; -533.000
216.494; -141.400; -939.000; -867.000
216.639; -122.025; -823.000; -888.000
216.784;  -90.025; -577.000; -525.000
216.929;   42.800;  392.000;  281.000
217.073;  -24.975; -244.000;  -31.000
217.218;   -6.075;   78.000;  -47.000
217.363;  -82.450; -656.000; -618.000
217.507;  -88.075; -623.000; -588.000
217.652; -130.400; -845.000; -874.000
217.797;  -76.825; -708.000; -659.000
217.942;  -98.400; -856.000; -720.000
218.086;   72.200;  608.000;  539.000
218.231;  -17.475; -174.000;  -26.000
218.376;  -24.825; -337.000; -229.000
218.520;   -1.675;  -41.000;   96.000
218.665;  -36.925; -338.000; -204.000
218.810;  -37.475; -275.000; -233.000
218.954;   13.300;  201.000;   35.000
219.099; -129.150; -713.000; -963.000
219.243;  -63.950; -589.000; -554.000
219.388;  -34.550; -264.000; -136.000
219.532;   -1.350; -116.000; -116.000
219.677;  -67.950; -564.000; -521.000
219.822;  -10.950;   33.000;   89.000
219.966;   10.500;   17.000;  -99.000
220.111;  -35.000; -328.000;  -40.000
220.255;  -97.750; -797.000; -750.000
220.400;  -18.200; -180.000; -146.000
220.544;  -63.200; -516.000; -450.000
220.689;  -50.050; -422.000; -451.000
220.833;  -17.075; -123.000;  -58.000
220.978;  -47.425; -393.000; -563.000
221.122;   15.875;  319.000;  307.000
221.267; -115.700; -906.000; -837.000
221.411;  -64.650; -478.000; -394.000
221.555;  -12.625; -104.000;  -23.000
221.700;  -41.675; -329.000; -222.000
221.844;   19.700;  255.000;  272.000
221.989;  -52.850; -328.000; -311.000
222.133;  -34.425; -289.000; -307.000
222.277;    1.525;    5.000;   78.000
222.422;   18.475;  227.000;  113.000
222.566;  -47.100; -381.000; -214.000
222.711;  -54.900; -414.000; -479.000
222.855;  -85.700; -643.000; -586.000
222.999;  -80.050; -642.000; -717.000
223.144;  -33.750; -195.000; -194.000
223.288;   47.000;  423.000;  251.000
223.432;   18.400;  184.000;  230.000
223.576;   10.550;  152.000;  -21.000
223.721;   43.200;  364.000;  273.000
223.865;  -55.150; -472.000; -475.000
224.009;  202.625; 1673.000; 1631.000
224.153;  -85.825; -660.000; -671.000
224.298;  -61.925; -531.000; -489.000
224.442;   -8.725;  -74.000;  -33.000
224.586;  -10.225; -169.000; -106.000
224.730;  -93.650; -858.000; -670.000
224.875; -116.125; -739.000; -688.000
225.019;    2.850;  102.000;  188.000
225.163;   49.525;  208.000;  341.000
225.307;   17.850;   97.000;  -91.000
225.451;   50.625;  360.000;  481.000
225.595;   34.625;  264.000;  176.000
225.739;  -16.825; -170.000;  -94.000
225.884;    2.075;   86.000;    5.000
226.028;  -92.625; -760.000; -626.000
226.172;  -43.350; -260.000; -273.000
226.316; -125.300; -941.000; -902.000
226.460;  -65.600; -645.000; -493.000
226.604;  -57.250; -406.000; -400.000
226.748;  -94.400; -836.000; -733.000
226.892;  -42.450; -227.000; -181.000
227.036;  -47.550; -537.000; -447.000
227.180;  -62.225; -551.000; -375.000
227.324;  -72.125; -561.000; -580.000
227.468; -121.175; -819.000; -717.000
227.612;    3.850;  242.000;  -28.000
227.756; -118.900; -845.000; -698.000
227.900;   61.475;  342.000;  441.000
228.044;  -56.550; -509.000; -290.000
228.188;   59.575;  448.000;  568.000
228.332; -100.225; -546.000; -472.000
228.476;  -27.175; -223.000; -149.000
228.620;  -39.525; -210.000; -150.000
228.764;   65.450;  431.000;  349.000
228.908;  -13.775; -155.000;   30.000
229.052;  -50.450; -615.000; -528.000
229.195;  -13.350; -172.000;   13.000
229.339;  -35.325; -235.000; -305.000
229.483;  -25.775;    5.000; -162.000
229.627;   -7.475; -156.000;  139.000
229.771;  -44.850; -218.000; -294.000
229.915;    6.050;  230.000;   79.000
230.059;  -94.700; -648.000; -663.000
230.202;  -43.850; -370.000; -317.000
230.346;  -12.275; -107.000;  107.000
230.490;  -62.125; -489.000; -521.000
230.634; -115.525; -736.000; -553.000
230.777;   79.275;  478.000;  509.000
230.921;  -72.475; -450.000; -359.000
231.065;  -28.600; -246.000; -286.000
231.209;   17.100;  261.000;  265.000
231.352;   11.975;   54.000;   40.000
231.496;   16.100;  568.000;  188.000
231.640;  -87.575; -693.000; -621.000
231.783;   52.350;  546.000;  525.000
231.927;  -52.925; -294.000; -365.000
232.071; -126.800; -962.000; -736.000
232.214; -112.625; -980.000; -764.000
232.358; -104.600; -683.000; -599.000
232.502;   16.800;  -19.000;    7.000
232.645; -130.775;-1090.000; -927.000
232.789;  -25.825; -257.000; -218.000
232.933;  -49.025; -407.000; -224.000
233.076; -127.525;-1038.000; -897.000
233.220; -105.325; -752.000; -777.000
233.363;  -75.900; -669.000; -477.000
233.507;   44.875;  371.000;  129.000
233.650; -106.775; -764.000; -834.000
233.794;   41.575;  438.000;  461.000
233.938;  -63.750; -530.000; -362.000
234.081;   -8.950;  -93.000;   31.000
234.225;  -70.325; -631.000; -539.000
234.368; -102.975; -773.000; -723.000
234.512;  -34.500; -385.000; -299.000
234.655;  -95.650; -582.000; -555.000
234.798;  -74.475; -493.000; -466.000
234.942; -131.225; -884.000;-1002.000
235.085;  -77.275; -651.000; -443.000
235.229;  -87.425; -405.000; -410.000
235.372;  -55.075; -247.000; -191.000
235.516;  -65.475; -397.000; -321.000
235.659;   13.500;   92.000;  121.000
235.802;  -20.600;  -38.000;  -22.000
235.946;   27.175;  335.000;  215.000
236.089;   12.025;  126.000;  250.000
236.233;   53.700;  275.000;  298.000
236.376;  -51.650; -235.000; -378.000
236.519;  -52.475; -297.000; -319.000
236.663;  -28.500; -215.000; -117.000
236.806; -143.950;-1029.000; -999.000
236.949;   67.575;  543.000;  431.000
237.092;   58.825;  412.000;  391.000
237.236;  -86.875; -589.000; -502.000
237.379;   69.850;  352.000;  428.000
237.522; -108.675; -879.000; -768.000
237.666;  -20.700; -271.000;   18.000
237.809; -123.725; -851.000; -823.000
237.952;   34.500;  469.000;  271.000
238.095;  -61.975; -447.000; -442.000
238.238;   78.025;  688.000;  700.000
238.382;   -3.650;  166.000;  103.000
238.525;  -74.400; -598.000; -511.000
238.668; -152.800;-1060.000; -985.000
238.811;  -68.375; -638.000; -643.000
238.954;  -69.775; -483.000; -334.000
239.097;   94.550;  617.000;  664.000
239.241;   12.775;  394.000;  326.000
239.384;  -34.500; -254.000; -214.000
239.527;  -57.875; -424.000; -224.000
239.670; -134.050; -994.000;-1091.000
239.813; -124.400; -696.000; -658.000
239.956;   79.900;  579.000;  473.000
240.099; -114.850; -778.000; -725.000
240.242;   56.975;  428.000;  432.000
240.385;   40.025;  466.000;  450.000
240.528;  -76.775; -706.000; -473.000
240.671;    2.550;  189.000;  134.000
240.814;  -45.825; -441.000; -158.000
240.957; -111.075; -767.000; -578.000
241.100;  -93.925; -779.000; -755.000
241.243; -139.125;-1234.000; -893.000
241.386;  -69.750; -508.000; -379.000
241.529;  -92.900; -735.000; -547.000
241.672;  -66.625; -566.000; -495.000
241.815; -110.525; -832.000; -808.000
241.958;  -21.825; -125.000; -182.000
242.101;  -65.925; -545.000; -390.000
242.244;  -45.000; -270.000; -325.000
242.387;  -45.300; -304.000; -246.000
242.530;   62.825;  470.000;  134.000
242.673;  -45.725; -381.000; -309.000
242.815; -123.525; -925.000; -899.000
242.958;  -74.200; -482.000; -381.000
243.101;   12.025;  132.000;  187.000
243.244;  -84.850; -564.000; -521.000
243.387;  -44.825; -313.000; -316.000
243.530; -100.675; -657.000; -674.000
243.672;  -18.975;   43.000;  -92.000
243.815;  -65.825; -355.000; -283.000
243.958;    1.050;   98.000;  -26.000
244.101;  -14.500;   59.000;  -16.000
244.243;  -22.325;  -47.000;  101.000
244.386; -114.400; -761.000; -630.000
244.529;  -21.775; -132.000; -139.000
244.672; -156.525;-1154.000; -951.000
244.814;  -87.350; -621.000; -794.000
244.957;  -49.625; -380.000; -304.000
245.100;  -80.675; -489.000; -489.000
245.242;  -57.050; -387.000; -374.000
245.385;    8.575;  -59.000;  -39.000
245.528; -123.225; -871.000; -705.000
245.670;   82.700;  612.000;  634.000
245.813; -103.425; -599.000; -547.000
245.956;  -27.225; -324.000; -275.000
246.098;  -80.925; -508.000; -650.000
246.241;    9.150;  194.000;   48.000
246.383;  -14.525; -119.000;  -73.000
246.526;  -61.075; -454.000; -525.000
246.669; -115.950; -889.000; -780.000
246.811;    5.675;  172.000;   -1.000
246.954;  -71.650; -512.000; -426.000
247.096;  -20.725;  -84.000;   -6.000
247.239;  -78.125; -482.000; -445.000
247.381;  -68.800; -647.000; -488.000
247.524;   85.950;  645.000;  679.000
247.666;   -8.175;   58.000;   11.000
247.809; -136.200; -887.000; -691.000
247.951;   -4.600;  -75.000;  138.000
248.094;   25.500;  432.000;  308.000
248.236; -156.900;-1262.000;-1238.000
248.378;   -1.600; -356.000;  -81.000
248.521;   -6.400; -334.000; -337.000
248.663;  -40.250; -236.000; -267.000
248.806;  -23.700; -300.000; -266.000
248.948; -102.850; -886.000; -763.000
249.090;  -40.650; -428.000; -398.000
249.233;  -57.075; -344.000; -381.000
249.375;  -61.875; -474.000; -451.000
249.518;  -24.750;  -83.000; -133.000
249.660;    4.100; -103.000;    3.000
249.802; -184.600;-1303.000;-1189.000
249.945;  -67.550; -612.000; -540.000
250.087; -115.375; -834.000; -768.000
250.229;  -48.875; -362.000; -480.000
250.371;  -82.350; -494.000; -439.000
250.514;  -59.550; -310.000; -244.000
250.656;  -25.525;   69.000;  102.000
250.798; -122.300; -849.000; -800.000
250.940;  -70.700; -322.000; -322.000
251.083;  -23.350; -335.000; -111.000
251.225;   49.025;  338.000;  310.000
251.367;  -40.250; -274.000; -373.000
251.509;  -35.600; -265.000; -210.000
251.651;  -99.750; -731.000; -671.000
251.794;   75.750;  538.000;  632.000
251.936; -108.700; -821.000; -747.000
252.078;  -81.500; -540.000; -461.000
252.220;  -70.000; -645.000; -477.000
252.362;   83.425;  344.000;  462.000
252.504;  -65.975; -677.000; -584.000
252.646; -126.200; -875.000; -722.000
252.788;    1.375;   14.000; -128.000
252.931;  -45.525; -257.000; -253.000
253.073;  -44.450; -376.000; -317.000
253.215;   -4.175;  141.000;  122.000
253.357;  -10.875;   82.000; -153.000
253.499;  -57.400; -374.000; -234.000
253.641;  -90.325; -749.000; -594.000
253.783;  -90.500; -609.000; -527.000
253.925;  -81.550; -586.000; -591.000
254.067; -113.450; -744.000; -667.000
254.209;  -22.525; -391.000; -259.000
254.351; -148.175; -865.000; -883.000
254.493;  -53.150; -441.000; -417.000
254.635; -122.100; -936.000; -818.000
254.777;  -97.125; -752.000; -687.000
254.918;  -67.100; -512.000; -430.000
255.060;  -64.150; -551.000; -395.000
255.202;  -67.200; -473.000; -261.000
255.344;  -80.350; -658.000; -455.000
255.486;  -85.925; -471.000; -406.000
255.628; -108.075; -780.000; -781.000
255.770;  -92.300; -676.000; -536.000
255.912;  -61.750; -559.000; -468.000
256.053;  -98.950; -730.000; -508.000
256.195;  159.600; 1008.000;  903.000
256.337;  -97.900; -861.000; -595.000
256.479;   63.200;  532.000;  416.000
256.621;  -70.850; -394.000; -212.000
256.762; -104.050; -789.000; -742.000
256.904;   51.125;  485.000;  487.000
257.046;  -53.900; -381.000; -271.000
257.188;  -43.525; -351.000; -264.000
257.329;  -84.625; -525.000; -464.000
257.471; -126.675; -939.000; -807.000
257.613;  -67.500; -584.000; -498.000
257.755; -165.125;-1073.000; -982.000
257.896;   25.650;  286.000;  392.000
258.038;  -79.050; -403.000; -352.000
258.180;  -51.950; -354.000; -279.000
258.321;  -94.175; -581.000; -457.000
258.463;   -2.050;  -71.000;  133.000
258.605;  -89.875; -562.000; -570.000
258.746; -107.875; -886.000; -772.000
258.888; -155.150;-1026.000;-1020.000
259.029;   16.425;  121.000;   -8.000
259.171;  -92.975; -614.000; -550.000
259.313;    1.150;  -49.000;  -47.000
259.454;  -83.600; -536.000; -414.000
259.596;  -69.950; -483.000; -390.000
259.737;  -73.000; -590.000; -474.000
259.879;   29.450;  217.000;  311.000
260.020;   84.175;  901.000;  636.000
260.162;  -19.550; -146.000; -253.000
260.303; -114.075; -768.000; -687.000
260.445;  -87.600; -609.000; -613.000
260.586;   39.675;  392.000;  157.000
260.728;  -36.925; -360.000; -248.000
260.869; -119.300; -350.000; -343.000
261.011;   83.875;  706.000;  537.000
261.152;  -51.900; -479.000; -319.000
261.293;  -77.825; -576.000; -595.000
261.435;  -34.025; -219.000; -184.000
261.576;  -57.300; -455.000; -325.000
261.718;   56.525;  420.000;  470.000
261.859; -118.800; -940.000; -949.000
262.000; -140.700; -951.000;-1016.000
262.142;  -22.450;  -52.000;  -60.000
262.283; -124.850; -808.000; -691.000
262.424;  -87.100; -666.000; -625.000
262.566; -160.875;-1161.000; -983.000
262.707; -102.025; -840.000; -830.000
262.848; -127.650; -769.000; -726.000
262.990;  -50.350; -362.000; -345.000
263.131;   76.525;  650.000;  681.000
263.272;  -16.150;  -61.000;  -41.000
263.413;  -99.725; -589.000; -561.000
263.555;  -72.075; -669.000; -143.000
263.696; -100.725; -550.000; -641.000
263.837;  -60.650; -449.000; -551.000
263.978;  -15.350;   -5.000;  -77.000
264.119;  -41.650; -283.000; -264.000
264.261; -107.675; -847.000; -630.000
264.402;    3.775;   33.000;   40.000
264.543;  -90.650; -509.000; -524.000
264.684;  -13.700;   61.000;  -50.000
264.825;  -76.850; -816.000; -538.000
264.966;  -12.325;  -84.000;  -67.000
265.107; -118.500; -646.000; -670.000
265.248; -119.175; -825.000; -812.000
265.390;   -5.500;  152.000;   -9.000
265.531;  -31.700; -238.000; -107.000
265.672;  -97.475; -557.000; -630.000
265.813;   58.775;  563.000;  439.000
265.954; -157.250; -959.000; -940.000
266.095;  -15.625; -372.000; -322.000
266.236; -106.350; -686.000; -548.000
266.377;  -43.100; -243.000; -297.000
266.518;  -82.275; -619.000; -547.000
266.659;   30.600;  170.000;  268.000
266.800;    4.325;   83.000;   85.000
266.941;  -86.375; -487.000; -478.000
267.082;   30.425;  354.000;   99.000
267.223;  -57.375; -344.000; -273.000
267.364; -122.625; -892.000; -686.000
267.504;   -8.525;    3.000;  135.000
267.645;   -8.950;  160.000;   67.000
267.786;  -21.725; -147.000;  -86.000
267.927;  -60.575; -473.000; -379.000
268.068;  -25.925; -186.000;  -61.000
268.209;  -54.250; -175.000; -413.000
268.350;  -63.525; -388.000; -532.000
268.490;  -89.875; -648.000; -521.000
268.631;   14.500;  127.000;  225.000
268.772; -115.750; -874.000; -647.000
268.913;  -48.125; -328.000; -476.000
269.054;  -16.500; -117.000;   12.000
269.194;  -57.250; -418.000; -402.000
269.335; -150.375;-1137.000;-1074.000
269.476;  -22.000;   33.000;  -35.000
269.617;  -67.750; -347.000; -392.000
269.757;  -89.700; -713.000; -646.000
269.898; -120.275; -856.000; -613.000
270.039;  -67.850; -415.000; -405.000
270.180; -138.975; -952.000; -816.000
270.320;  -33.250; -190.000; -250.000
