
Integration time [ms]: 100.000
Averaging Nr. [scans]: 40
Smoothing Nr. [pixels]: 0
Data measured with spectrometer [name]: 2101012U2
Wave   ;Sample   ;Dark     ;Reference
[nm]   ;[counts] ;[counts] ;[counts] 

197.733;   48.975;  516.000;  404.000
197.879;  -85.575; -610.000; -634.000
198.025;  -37.975; -475.000; -420.000
198.171;  -70.650; -602.000; -612.000
198.317;  -37.800; -401.000; -316.000
198.463;  -56.200; -655.000; -404.000
198.609;   21.800;  181.000; -137.000
198.755;  -76.625; -644.000; -410.000
198.901;  -62.875; -505.000; -424.000
199.047;  -62.125; -615.000; -488.000
199.193;  -42.925; -230.000; -468.000
199.339;  -33.425; -222.000; -369.000
199.485;   33.150;  330.000;  271.000
199.631;    7.525;  227.000;  310.000
199.777;  -49.775; -466.000; -398.000
199.923;  -66.825; -610.000; -424.000
200.069;   -6.300; -141.000;  -58.000
200.215;   60.925;  128.000;  453.000
200.361;   27.725;  243.000;  477.000
200.507;  -51.675; -600.000; -373.000
200.653;  -26.625; -371.000; -194.000
200.798;  -29.325; -215.000; -125.000
200.944;   -9.800; -146.000;  -41.000
201.090;   36.825;   61.000;  222.000
201.236;  -11.525; -116.000; -158.000
201.382;  122.675;  874.000;  903.000
201.528;   -2.800;  -58.000;  -48.000
201.674;  -50.725; -386.000; -293.000
201.819;  -68.725; -540.000; -439.000
201.965;  -73.175; -699.000; -447.000
202.111;  -15.000; -273.000; -226.000
202.257;  -40.275; -250.000; -238.000
202.402;    1.975;   13.000;  -36.000
202.548;  -43.850; -169.000; -116.000
202.694;   72.650;  410.000; -183.000
202.840;  -65.700; -603.000; -531.000
202.985;  -71.575; -681.000; -639.000
203.131; -101.375; -832.000; -666.000
203.277;  -39.800; -199.000; -262.000
203.423;  -45.000; -434.000; -520.000
203.568;  -31.325; -462.000; -237.000
203.714;  -56.625; -535.000; -542.000
203.860;  -73.425; -682.000; -641.000
204.005;   14.650;  112.000;  167.000
204.151;   63.200;  561.000;  556.000
204.296;  -48.600; -354.000; -221.000
204.442;  -67.125; -600.000; -547.000
204.588;  -71.425; -592.000; -579.000
204.733;   13.350;  178.000;  168.000
204.879; -114.900;-1018.000; -822.000
205.025;   11.575;  -99.000;  126.000
205.170;    1.025;  -17.000;   94.000
205.316;   77.450;  438.000;  661.000
205.461;  -83.050; -698.000; -554.000
205.607;   70.075;  609.000;  665.000
205.752;  -78.900; -626.000; -551.000
205.898;  -56.300; -501.000; -391.000
206.043;  -60.325; -578.000; -506.000
206.189;  -44.400; -243.000; -285.000
206.334;   74.375;  554.000;  606.000
206.480;   58.975;  409.000;  239.000
206.625;  -72.775; -529.000; -552.000
206.771;  -34.375; -451.000; -373.000
206.916;  -33.725; -210.000; -537.000
207.062;  -47.850; -545.000; -591.000
207.207;  -66.175; -546.000; -443.000
207.353;   34.750;  185.000;  460.000
207.498;   12.175;  196.000;   85.000
207.643;  -63.550; -501.000; -370.000
207.789; -129.025;-1069.000; -910.000
207.934;  -81.075; -665.000; -713.000
208.080;  -21.425; -154.000;   66.000
208.225;  -23.575;  -22.000;  -57.000
208.370;  -75.775; -727.000; -619.000
208.516;  -76.025; -741.000; -487.000
208.661;  -22.225; -127.000;  -69.000
208.806;  -28.975; -165.000; -171.000
208.952; -119.350;-1044.000; -731.000
209.097;   70.975;  378.000;  349.000
209.242;  -33.600; -307.000; -382.000
209.387;   68.175;  392.000;  350.000
209.533;  -50.975; -321.000; -350.000
209.678;   71.375;  472.000;  543.000
209.823;  -61.975; -408.000; -310.000
209.969;  -96.925; -860.000; -757.000
210.114; -106.750; -907.000; -719.000
210.259; -119.650; -939.000; -889.000
210.404;    4.400; -171.000;  103.000
210.549;    4.150;  108.000;    3.000
210.695;   -6.925;   -3.000;  -95.000
210.840;   17.650;   94.000;   67.000
210.985;  -57.825; -484.000; -303.000
211.130;   59.075;  268.000;  406.000
211.275;    8.825;  207.000;  199.000
211.420;  -48.825; -300.000; -289.000
211.566;  -72.100; -536.000; -489.000
211.711;   26.175;  218.000;  157.000
211.856;  -65.650; -545.000; -519.000
212.001;    5.125;  151.000;   44.000
212.146;   11.375;  153.000;   49.000
212.291;  -24.375; -210.000; -186.000
212.436;  -35.275; -280.000;   -6.000
212.581;  -74.250; -685.000; -653.000
212.726;  -59.550; -487.000; -538.000
212.871;  -42.750; -552.000; -217.000
213.016; -143.300;-1172.000;-1029.000
213.161;   55.675;  406.000;  291.000
213.306;  -78.325; -435.000; -577.000
213.451;  -90.100; -778.000; -689.000
213.596;  -39.225; -455.000; -347.000
213.741;  -56.675; -448.000; -538.000
213.886;  -69.425; -498.000; -517.000
214.031;  -17.975; -294.000; -124.000
214.176;  -44.725; -408.000; -341.000
214.321;  -19.475; -296.000; -157.000
214.466;  -25.025; -163.000;  -43.000
214.611;   -5.575;  -61.000;  -10.000
214.756; -110.625; -948.000; -858.000
214.901;  -20.725; -388.000; -226.000
215.046; -116.475; -797.000; -825.000
215.191;   -1.450;  128.000;   35.000
215.336;  -14.450; -157.000;  -19.000
215.480;  -68.300; -684.000; -505.000
215.625;  -19.050; -175.000;  -19.000
215.770;  -88.950; -757.000; -662.000
215.915;  -13.375;   -5.000;  -97.000
216.060;    1.500; -113.000;  -21.000
216.205; -110.650; -731.000; -779.000
216.349;  -63.600; -470.000; -533.000
216.494; -121.425; -939.000; -867.000
216.639; -105.175; -823.000; -888.000
216.784;  -77.000; -577.000; -525.000
216.929;   57.975;  392.000;  281.000
217.073;  -13.625; -244.000;  -31.000
217.218;   -3.875;   78.000;  -47.000
217.363;  -86.800; -656.000; -618.000
217.507;  -86.925; -623.000; -588.000
217.652; -121.450; -845.000; -874.000
217.797;  -88.475; -708.000; -659.000
217.942; -106.700; -856.000; -720.000
218.086;   67.075;  608.000;  539.000
218.231;  -14.500; -174.000;  -26.000
218.376;  -34.900; -337.000; -229.000
218.520;   -0.075;  -41.000;   96.000
218.665;  -40.450; -338.000; -204.000
218.810;  -45.250; -275.000; -233.000
218.954;   16.475;  201.000;   35.000
219.099; -108.175; -713.000; -963.000
219.243;  -68.675; -589.000; -554.000
219.388;  -31.600; -264.000; -136.000
219.532;   -8.450; -116.000; -116.000
219.677;  -77.775; -564.000; -521.000
219.822;    2.750;   33.000;   89.000
219.966;    1.900;   17.000;  -99.000
220.111;  -41.875; -328.000;  -40.000
220.255; -102.800; -797.000; -750.000
220.400;  -10.200; -180.000; -146.000
220.544;  -68.425; -516.000; -450.000
220.689;  -63.075; -422.000; -451.000
220.833;  -14.625; -123.000;  -58.000
220.978;  -42.100; -393.000; -563.000
221.122;   30.225;  319.000;  307.000
221.267; -107.550; -906.000; -837.000
221.411;  -65.125; -478.000; -394.000
221.555;   -3.275; -104.000;  -23.000
221.700;  -51.050; -329.000; -222.000
221.844;   27.175;  255.000;  272.000
221.989;  -42.550; -328.000; -311.000
222.133;  -34.625; -289.000; -307.000
222.277;  -10.075;    5.000;   78.000
222.422;   25.400;  227.000;  113.000
222.566;  -33.425; -381.000; -214.000
222.711;  -60.350; -414.000; -479.000
222.855;  -72.500; -643.000; -586.000
222.999;  -82.325; -642.000; -717.000
223.144;  -18.500; -195.000; -194.000
223.288;   37.975;  423.000;  251.000
223.432;   29.300;  184.000;  230.000
223.576;   12.175;  152.000;  -21.000
223.721;   24.750;  364.000;  273.000
223.865;  -63.300; -472.000; -475.000
224.009;  221.525; 1673.000; 1631.000
224.153;  -77.300; -660.000; -671.000
224.298;  -53.250; -531.000; -489.000
224.442;   -3.050;  -74.000;  -33.000
224.586;   -8.975; -169.000; -106.000
224.730;  -98.975; -858.000; -670.000
224.875;  -87.700; -739.000; -688.000
225.019;   10.075;  102.000;  188.000
225.163;   40.025;  208.000;  341.000
225.307;   11.750;   97.000;  -91.000
225.451;   39.950;  360.000;  481.000
225.595;   28.675;  264.000;  176.000
225.739;  -21.150; -170.000;  -94.000
225.884;    2.600;   86.000;    5.000
226.028;  -98.500; -760.000; -626.000
226.172;  -42.025; -260.000; -273.000
226.316; -108.700; -941.000; -902.000
226.460;  -75.650; -645.000; -493.000
226.604;  -52.825; -406.000; -400.000
226.748;  -98.250; -836.000; -733.000
226.892;  -33.575; -227.000; -181.000
227.036;  -38.475; -537.000; -447.000
227.180;  -62.350; -551.000; -375.000
227.324;  -50.625; -561.000; -580.000
227.468; -104.850; -819.000; -717.000
227.612;   10.300;  242.000;  -28.000
227.756;  -95.025; -845.000; -698.000
227.900;   42.400;  342.000;  441.000
228.044;  -62.500; -509.000; -290.000
228.188;   53.175;  448.000;  568.000
228.332;  -82.500; -546.000; -472.000
228.476;  -34.025; -223.000; -149.000
228.620;  -43.075; -210.000; -150.000
228.764;   59.075;  431.000;  349.000
228.908;  -21.100; -155.000;   30.000
229.052;  -62.775; -615.000; -528.000
229.195;  -29.675; -172.000;   13.000
229.339;  -33.250; -235.000; -305.000
229.483;  -38.300;    5.000; -162.000
229.627;   -6.025; -156.000;  139.000
229.771;  -41.200; -218.000; -294.000
229.915;   -1.075;  230.000;   79.000
230.059;  -89.775; -648.000; -663.000
230.202;  -40.625; -370.000; -317.000
230.346;  -30.400; -107.000;  107.000
230.490;  -60.325; -489.000; -521.000
230.634;  -98.175; -736.000; -553.000
230.777;   66.025;  478.000;  509.000
230.921;  -66.350; -450.000; -359.000
231.065;  -49.925; -246.000; -286.000
231.209;   30.950;  261.000;  265.000
231.352;    9.625;   54.000;   40.000
231.496;    6.500;  568.000;  188.000
231.640;  -86.550; -693.000; -621.000
231.783;   60.650;  546.000;  525.000
231.927;  -31.300; -294.000; -365.000
232.071; -121.525; -962.000; -736.000
232.214; -114.125; -980.000; -764.000
232.358;  -96.900; -683.000; -599.000
232.502;    1.375;  -19.000;    7.000
232.645; -121.025;-1090.000; -927.000
232.789;  -18.875; -257.000; -218.000
232.933;  -33.050; -407.000; -224.000
233.076; -119.750;-1038.000; -897.000
233.220; -105.500; -752.000; -777.000
233.363;  -79.450; -669.000; -477.000
233.507;   38.125;  371.000;  129.000
233.650;  -87.225; -764.000; -834.000
233.794;   46.850;  438.000;  461.000
233.938;  -58.350; -530.000; -362.000
234.081;   -5.825;  -93.000;   31.000
234.225;  -81.675; -631.000; -539.000
234.368; -111.725; -773.000; -723.000
234.512;  -41.950; -385.000; -299.000
234.655;  -97.775; -582.000; -555.000
234.798;  -60.325; -493.000; -466.000
234.942; -115.125; -884.000;-1002.000
235.085;  -77.125; -651.000; -443.000
235.229;  -77.025; -405.000; -410.000
235.372;  -43.400; -247.000; -191.000
235.516;  -51.550; -397.000; -321.000
235.659;   10.025;   92.000;  121.000
235.802;  -25.900;  -38.000;  -22.000
235.946;   26.600;  335.000;  215.000
236.089;   29.375;  126.000;  250.000
236.233;   40.100;  275.000;  298.000
236.376;  -48.475; -235.000; -378.000
236.519;  -29.425; -297.000; -319.000
236.663;  -29.375; -215.000; -117.000
236.806; -126.200;-1029.000; -999.000
236.949;   57.050;  543.000;  431.000
237.092;   50.150;  412.000;  391.000
237.236;  -84.900; -589.000; -502.000
237.379;   45.850;  352.000;  428.000
237.522; -110.475; -879.000; -768.000
237.666;  -23.350; -271.000;   18.000
237.809; -111.800; -851.000; -823.000
237.952;   23.275;  469.000;  271.000
238.095;  -68.925; -447.000; -442.000
238.238;   79.425;  688.000;  700.000
238.382;   -4.050;  166.000;  103.000
238.525;  -62.600; -598.000; -511.000
238.668; -123.175;-1060.000; -985.000
238.811;  -85.025; -638.000; -643.000
238.954;  -55.950; -483.000; -334.000
239.097;   76.325;  617.000;  664.000
239.241;   17.700;  394.000;  326.000
239.384;  -39.025; -254.000; -214.000
239.527;  -49.825; -424.000; -224.000
239.670; -144.325; -994.000;-1091.000
239.813; -118.275; -696.000; -658.000
239.956;   58.400;  579.000;  473.000
240.099; -105.475; -778.000; -725.000
240.242;   54.150;  428.000;  432.000
240.385;   44.050;  466.000;  450.000
240.528;  -59.925; -706.000; -473.000
240.671;   13.125;  189.000;  134.000
240.814;  -47.225; -441.000; -158.000
240.957;  -89.100; -767.000; -578.000
241.100;  -83.275; -779.000; -755.000
241.243; -133.425;-1234.000; -893.000
241.386;  -62.300; -508.000; -379.000
241.529;  -79.575; -735.000; -547.000
241.672;  -62.300; -566.000; -495.000
241.815; -110.600; -832.000; -808.000
241.958;  -19.400; -125.000; -182.000
242.101;  -72.500; -545.000; -390.000
242.244;  -42.675; -270.000; -325.000
242.387;  -46.175; -304.000; -246.000
242.530;   53.700;  470.000;  134.000
242.673;  -53.600; -381.000; -309.000
242.815; -121.200; -925.000; -899.000
242.958;  -58.750; -482.000; -381.000
243.101;    5.050;  132.000;  187.000
243.244;  -75.500; -564.000; -521.000
243.387;  -39.300; -313.000; -316.000
243.530;  -92.900; -657.000; -674.000
243.672;    6.975;   43.000;  -92.000
243.815;  -62.775; -355.000; -283.000
243.958;   -1.200;   98.000;  -26.000
244.101;    1.225;   59.000;  -16.000
244.243;  -30.525;  -47.000;  101.000
244.386; -111.650; -761.000; -630.000
244.529;  -23.925; -132.000; -139.000
244.672; -144.400;-1154.000; -951.000
244.814;  -83.950; -621.000; -794.000
244.957;  -49.800; -380.000; -304.000
245.100;  -76.000; -489.000; -489.000
245.242;  -56.500; -387.000; -374.000
245.385;    3.150;  -59.000;  -39.000
245.528; -124.875; -871.000; -705.000
245.670;   67.075;  612.000;  634.000
245.813;  -83.275; -599.000; -547.000
245.956;  -32.300; -324.000; -275.000
246.098;  -72.000; -508.000; -650.000
246.241;   -5.175;  194.000;   48.000
246.383;  -20.350; -119.000;  -73.000
246.526;  -69.725; -454.000; -525.000
246.669; -126.000; -889.000; -780.000
246.811;   13.000;  172.000;   -1.000
246.954;  -72.475; -512.000; -426.000
247.096;  -31.825;  -84.000;   -6.000
247.239;  -78.900; -482.000; -445.000
247.381;  -72.925; -647.000; -488.000
247.524;   73.100;  645.000;  679.000
247.666;    2.825;   58.000;   11.000
247.809; -105.025; -887.000; -691.000
247.951;   -3.125;  -75.000;  138.000
248.094;   15.125;  432.000;  308.000
248.236; -150.125;-1262.000;-1238.000
248.378;  -30.200; -356.000;  -81.000
248.521;  -37.575; -334.000; -337.000
248.663;  -41.825; -236.000; -267.000
248.806;  -36.250; -300.000; -266.000
248.948;  -99.575; -886.000; -763.000
249.090;  -67.200; -428.000; -398.000
249.233;  -60.375; -344.000; -381.000
249.375;  -74.875; -474.000; -451.000
249.518;  -23.700;  -83.000; -133.000
249.660;  -17.600; -103.000;    3.000
249.802; -159.875;-1303.000;-1189.000
249.945;  -81.725; -612.000; -540.000
250.087; -106.950; -834.000; -768.000
250.229;  -62.900; -362.000; -480.000
250.371;  -75.550; -494.000; -439.000
250.514;  -59.425; -310.000; -244.000
250.656;    2.175;   69.000;  102.000
250.798; -119.700; -849.000; -800.000
250.940;  -62.350; -322.000; -322.000
251.083;  -40.750; -335.000; -111.000
251.225;   32.150;  338.000;  310.000
251.367;  -44.775; -274.000; -373.000
251.509;  -47.625; -265.000; -210.000
251.651;  -91.625; -731.000; -671.000
251.794;   46.450;  538.000;  632.000
251.936; -109.875; -821.000; -747.000
252.078;  -74.950; -540.000; -461.000
252.220;  -64.350; -645.000; -477.000
252.362;   50.625;  344.000;  462.000
252.504;  -52.825; -677.000; -584.000
252.646; -117.700; -875.000; -722.000
252.788;  -15.500;   14.000; -128.000
252.931;  -38.550; -257.000; -253.000
253.073;  -57.000; -376.000; -317.000
253.215;   -4.200;  141.000;  122.000
253.357;  -17.500;   82.000; -153.000
253.499;  -56.975; -374.000; -234.000
253.641;  -91.500; -749.000; -594.000
253.783;  -76.225; -609.000; -527.000
253.925;  -74.175; -586.000; -591.000
254.067; -108.525; -744.000; -667.000
254.209;  -35.050; -391.000; -259.000
254.351; -125.400; -865.000; -883.000
254.493;  -53.200; -441.000; -417.000
254.635; -129.825; -936.000; -818.000
254.777;  -87.900; -752.000; -687.000
254.918;  -59.275; -512.000; -430.000
255.060;  -68.625; -551.000; -395.000
255.202;  -60.775; -473.000; -261.000
255.344;  -81.625; -658.000; -455.000
255.486;  -63.900; -471.000; -406.000
255.628; -101.000; -780.000; -781.000
255.770;  -97.950; -676.000; -536.000
255.912;  -52.900; -559.000; -468.000
256.053;  -97.675; -730.000; -508.000
256.195;  144.125; 1008.000;  903.000
256.337;  -87.500; -861.000; -595.000
256.479;   63.425;  532.000;  416.000
256.621;  -46.425; -394.000; -212.000
256.762;  -97.875; -789.000; -742.000
256.904;   42.575;  485.000;  487.000
257.046;  -43.025; -381.000; -271.000
257.188;  -45.775; -351.000; -264.000
257.329;  -76.450; -525.000; -464.000
257.471; -113.825; -939.000; -807.000
257.613;  -65.200; -584.000; -498.000
257.755; -151.275;-1073.000; -982.000
257.896;   27.525;  286.000;  392.000
258.038;  -66.775; -403.000; -352.000
258.180;  -40.425; -354.000; -279.000
258.321;  -90.425; -581.000; -457.000
258.463;   -6.975;  -71.000;  133.000
258.605;  -83.225; -562.000; -570.000
258.746;  -88.400; -886.000; -772.000
258.888; -145.325;-1026.000;-1020.000
259.029;   11.375;  121.000;   -8.000
259.171;  -94.425; -614.000; -550.000
259.313;    3.750;  -49.000;  -47.000
259.454;  -67.150; -536.000; -414.000
259.596;  -53.875; -483.000; -390.000
259.737;  -75.450; -590.000; -474.000
259.879;   28.600;  217.000;  311.000
260.020;   82.850;  901.000;  636.000
260.162;  -32.525; -146.000; -253.000
260.303; -127.750; -768.000; -687.000
260.445;  -85.950; -609.000; -613.000
260.586;   14.650;  392.000;  157.000
260.728;  -49.450; -360.000; -248.000
260.869;  -59.075; -350.000; -343.000
261.011;   72.575;  706.000;  537.000
261.152;  -51.625; -479.000; -319.000
261.293;  -84.575; -576.000; -595.000
261.435;  -19.550; -219.000; -184.000
261.576;  -49.975; -455.000; -325.000
261.718;   46.000;  420.000;  470.000
261.859; -124.200; -940.000; -949.000
262.000; -112.650; -951.000;-1016.000
262.142;  -15.675;  -52.000;  -60.000
262.283; -119.725; -808.000; -691.000
262.424;  -77.750; -666.000; -625.000
262.566; -157.675;-1161.000; -983.000
262.707; -106.925; -840.000; -830.000
262.848; -119.900; -769.000; -726.000
262.990;  -46.425; -362.000; -345.000
263.131;   69.375;  650.000;  681.000
263.272;   -0.650;  -61.000;  -41.000
263.413;  -95.950; -589.000; -561.000
263.555;  -69.175; -669.000; -143.000
263.696;  -84.575; -550.000; -641.000
263.837;  -63.725; -449.000; -551.000
263.978;  -11.825;   -5.000;  -77.000
264.119;  -47.250; -283.000; -264.000
264.261; -109.025; -847.000; -630.000
264.402;    3.225;   33.000;   40.000
264.543;  -61.475; -509.000; -524.000
264.684;  -13.275;   61.000;  -50.000
264.825;  -59.875; -816.000; -538.000
264.966;   -3.475;  -84.000;  -67.000
265.107; -108.125; -646.000; -670.000
265.248; -114.350; -825.000; -812.000
265.390;   -4.225;  152.000;   -9.000
265.531;  -12.875; -238.000; -107.000
265.672;  -89.050; -557.000; -630.000
265.813;   55.075;  563.000;  439.000
265.954; -134.450; -959.000; -940.000
266.095;  -21.875; -372.000; -322.000
266.236;  -94.000; -686.000; -548.000
266.377;  -49.475; -243.000; -297.000
266.518;  -75.925; -619.000; -547.000
266.659;   16.025;  170.000;  268.000
266.800;   13.425;   83.000;   85.000
266.941;  -85.100; -487.000; -478.000
267.082;    4.700;  354.000;   99.000
267.223;  -49.300; -344.000; -273.000
267.364; -103.750; -892.000; -686.000
267.504;  -28.775;    3.000;  135.000
267.645;  -10.225;  160.000;   67.000
267.786;  -37.225; -147.000;  -86.000
267.927;  -60.450; -473.000; -379.000
268.068;  -33.325; -186.000;  -61.000
268.209;  -46.950; -175.000; -413.000
268.350;  -55.650; -388.000; -532.000
268.490;  -90.250; -648.000; -521.000
268.631;   23.675;  127.000;  225.000
268.772; -113.100; -874.000; -647.000
268.913;  -54.625; -328.000; -476.000
269.054;  -25.475; -117.000;   12.000
269.194;  -41.900; -418.000; -402.000
269.335; -146.375;-1137.000;-1074.000
269.476;  -11.650;   33.000;  -35.000
269.617;  -53.650; -347.000; -392.000
269.757;  -90.450; -713.000; -646.000
269.898; -110.300; -856.000; -613.000
270.039;  -61.250; -415.000; -405.000
270.180; -120.275; -952.000; -816.000
270.320;  -29.450; -190.000; -250.000
