
Integration time [ms]: 200.000
Averaging Nr. [scans]: 10
Smoothing Nr. [pixels]: 0
Data measured with spectrometer [name]: 2101012U2
Wave   ;Sample   ;Dark     ;Reference
[nm]   ;[counts] ;[counts] ;[counts] 

197.733;  120.400;  516.000;  404.000
197.879; -148.800; -610.000; -634.000
198.025;  -95.300; -475.000; -420.000
198.171; -125.900; -602.000; -612.000
198.317;  -84.100; -401.000; -316.000
198.463; -113.700; -655.000; -404.000
198.609;   27.100;  181.000; -137.000
198.755; -173.200; -644.000; -410.000
198.901; -165.400; -505.000; -424.000
199.047; -135.200; -615.000; -488.000
199.193; -103.800; -230.000; -468.000
199.339;  -71.100; -222.000; -369.000
199.485;   80.100;  330.000;  271.000
199.631;   30.600;  227.000;  310.000
199.777; -143.700; -466.000; -398.000
199.923; -121.400; -610.000; -424.000
200.069;    1.900; -141.000;  -58.000
200.215;  109.600;  128.000;  453.000
200.361;   57.900;  243.000;  477.000
200.507; -111.400; -600.000; -373.000
200.653;  -44.400; -371.000; -194.000
200.798;  -85.100; -215.000; -125.000
200.944;  -43.700; -146.000;  -41.000
201.090;   92.300;   61.000;  222.000
201.236;  -22.800; -116.000; -158.000
201.382;  249.300;  874.000;  903.000
201.528;   -2.900;  -58.000;  -48.000
201.674; -116.400; -386.000; -293.000
201.819; -151.400; -540.000; -439.000
201.965; -173.100; -699.000; -447.000
202.111;  -68.700; -273.000; -226.000
202.257;  -63.500; -250.000; -238.000
202.402;  -17.600;   13.000;  -36.000
202.548;  -45.700; -169.000; -116.000
202.694;  138.500;  410.000; -183.000
202.840; -175.400; -603.000; -531.000
202.985; -158.400; -681.000; -639.000
203.131; -215.100; -832.000; -666.000
203.277;  -83.300; -199.000; -262.000
203.423; -119.500; -434.000; -520.000
203.568; -120.300; -462.000; -237.000
203.714; -106.900; -535.000; -542.000
203.860; -139.800; -682.000; -641.000
204.005;   38.600;  112.000;  167.000
204.151;  138.500;  561.000;  556.000
204.296;  -65.900; -354.000; -221.000
204.442; -153.700; -600.000; -547.000
204.588; -166.400; -592.000; -579.000
204.733;   43.800;  178.000;  168.000
204.879; -265.400;-1018.000; -822.000
205.025;   33.300;  -99.000;  126.000
205.170;   18.200;  -17.000;   94.000
205.316;  166.700;  438.000;  661.000
205.461; -155.300; -698.000; -554.000
205.607;  169.700;  609.000;  665.000
205.752; -158.800; -626.000; -551.000
205.898; -101.400; -501.000; -391.000
206.043; -141.800; -578.000; -506.000
206.189;  -99.300; -243.000; -285.000
206.334;  159.800;  554.000;  606.000
206.480;  158.100;  409.000;  239.000
206.625; -145.900; -529.000; -552.000
206.771;  -99.600; -451.000; -373.000
206.916;  -35.400; -210.000; -537.000
207.062; -156.900; -545.000; -591.000
207.207; -109.300; -546.000; -443.000
207.353;  103.800;  185.000;  460.000
207.498;   21.700;  196.000;   85.000
207.643; -112.500; -501.000; -370.000
207.789; -261.500;-1069.000; -910.000
207.934; -202.700; -665.000; -713.000
208.080;  -68.900; -154.000;   66.000
208.225;  -42.700;  -22.000;  -57.000
208.370; -144.200; -727.000; -619.000
208.516; -159.500; -741.000; -487.000
208.661;  -62.200; -127.000;  -69.000
208.806;  -66.900; -165.000; -171.000
208.952; -241.900;-1044.000; -731.000
209.097;  197.500;  378.000;  349.000
209.242;  -69.300; -307.000; -382.000
209.387;  102.900;  392.000;  350.000
209.533;  -67.000; -321.000; -350.000
209.678;  143.100;  472.000;  543.000
209.823;  -72.400; -408.000; -310.000
209.969; -230.400; -860.000; -757.000
210.114; -178.100; -907.000; -719.000
210.259; -241.400; -939.000; -889.000
210.404;  -24.100; -171.000;  103.000
210.549;   25.800;  108.000;    3.000
210.695;  -13.200;   -3.000;  -95.000
210.840;   64.800;   94.000;   67.000
210.985; -106.900; -484.000; -303.000
211.130;  145.200;  268.000;  406.000
211.275;   71.200;  207.000;  199.000
211.420; -127.400; -300.000; -289.000
211.566; -151.100; -536.000; -489.000
211.711;   48.000;  218.000;  157.000
211.856; -138.900; -545.000; -519.000
212.001;   35.300;  151.000;   44.000
212.146;   41.000;  153.000;   49.000
212.291;  -21.700; -210.000; -186.000
212.436;  -79.000; -280.000;   -6.000
212.581; -176.200; -685.000; -653.000
212.726; -141.500; -487.000; -538.000
212.871; -109.000; -552.000; -217.000
213.016; -307.100;-1172.000;-1029.000
213.161;  125.200;  406.000;  291.000
213.306; -145.800; -435.000; -577.000
213.451; -226.200; -778.000; -689.000
213.596; -102.900; -455.000; -347.000
213.741; -148.300; -448.000; -538.000
213.886; -132.000; -498.000; -517.000
214.031;  -57.700; -294.000; -124.000
214.176; -125.700; -408.000; -341.000
214.321;  -64.200; -296.000; -157.000
214.466;  -38.000; -163.000;  -43.000
214.611;   -3.900;  -61.000;  -10.000
214.756; -226.700; -948.000; -858.000
214.901;  -52.800; -388.000; -226.000
215.046; -227.700; -797.000; -825.000
215.191;   45.800;  128.000;   35.000
215.336;  -13.600; -157.000;  -19.000
215.480; -139.600; -684.000; -505.000
215.625;  -12.100; -175.000;  -19.000
215.770; -160.200; -757.000; -662.000
215.915;   33.000;   -5.000;  -97.000
216.060;    0.200; -113.000;  -21.000
216.205; -227.700; -731.000; -779.000
216.349; -139.300; -470.000; -533.000
216.494; -261.400; -939.000; -867.000
216.639; -251.100; -823.000; -888.000
216.784; -127.700; -577.000; -525.000
216.929;  111.700;  392.000;  281.000
217.073;    3.400; -244.000;  -31.000
217.218;  -20.800;   78.000;  -47.000
217.363; -164.400; -656.000; -618.000
217.507; -164.800; -623.000; -588.000
217.652; -254.900; -845.000; -874.000
217.797; -196.600; -708.000; -659.000
217.942; -205.500; -856.000; -720.000
218.086;  112.000;  608.000;  539.000
218.231;   11.600; -174.000;  -26.000
218.376;  -65.900; -337.000; -229.000
218.520;   22.600;  -41.000;   96.000
218.665;  -54.900; -338.000; -204.000
218.810;  -82.500; -275.000; -233.000
218.954;    8.200;  201.000;   35.000
219.099; -215.800; -713.000; -963.000
219.243; -127.300; -589.000; -554.000
219.388;  -58.100; -264.000; -136.000
219.532;    2.300; -116.000; -116.000
219.677; -142.800; -564.000; -521.000
219.822;    9.800;   33.000;   89.000
219.966;   49.000;   17.000;  -99.000
220.111;  -65.900; -328.000;  -40.000
220.255; -171.900; -797.000; -750.000
220.400;  -69.700; -180.000; -146.000
220.544; -154.100; -516.000; -450.000
220.689; -127.200; -422.000; -451.000
220.833;  -29.700; -123.000;  -58.000
220.978; -104.200; -393.000; -563.000
221.122;   53.700;  319.000;  307.000
221.267; -244.700; -906.000; -837.000
221.411; -165.000; -478.000; -394.000
221.555;  -15.000; -104.000;  -23.000
221.700;  -96.400; -329.000; -222.000
221.844;   56.500;  255.000;  272.000
221.989;  -92.600; -328.000; -311.000
222.133;  -91.600; -289.000; -307.000
222.277;   16.700;    5.000;   78.000
222.422;   30.800;  227.000;  113.000
222.566;  -90.300; -381.000; -214.000
222.711; -116.500; -414.000; -479.000
222.855; -147.100; -643.000; -586.000
222.999; -184.300; -642.000; -717.000
223.144;  -44.700; -195.000; -194.000
223.288;  119.100;  423.000;  251.000
223.432;   42.700;  184.000;  230.000
223.576;   56.300;  152.000;  -21.000
223.721;  103.400;  364.000;  273.000
223.865; -141.900; -472.000; -475.000
224.009;  465.200; 1673.000; 1631.000
224.153; -173.300; -660.000; -671.000
224.298; -116.900; -531.000; -489.000
224.442;   -9.200;  -74.000;  -33.000
224.586;  -11.000; -169.000; -106.000
224.730; -221.300; -858.000; -670.000
224.875; -208.700; -739.000; -688.000
225.019;   30.700;  102.000;  188.000
225.163;  132.800;  208.000;  341.000
225.307;   22.600;   97.000;  -91.000
225.451;  103.800;  360.000;  481.000
225.595;   56.600;  264.000;  176.000
225.739;  -61.500; -170.000;  -94.000
225.884;    5.400;   86.000;    5.000
226.028; -196.500; -760.000; -626.000
226.172;  -69.600; -260.000; -273.000
226.316; -235.200; -941.000; -902.000
226.460; -137.000; -645.000; -493.000
226.604;  -85.800; -406.000; -400.000
226.748; -209.200; -836.000; -733.000
226.892;  -58.100; -227.000; -181.000
227.036;  -96.200; -537.000; -447.000
227.180; -112.700; -551.000; -375.000
227.324; -131.900; -561.000; -580.000
227.468; -216.800; -819.000; -717.000
227.612;   -4.000;  242.000;  -28.000
227.756; -194.100; -845.000; -698.000
227.900;  112.800;  342.000;  441.000
228.044;  -79.700; -509.000; -290.000
228.188;  144.500;  448.000;  568.000
228.332; -177.700; -546.000; -472.000
228.476;  -62.500; -223.000; -149.000
228.620;  -46.100; -210.000; -150.000
228.764;  161.000;  431.000;  349.000
228.908;   -4.700; -155.000;   30.000
229.052; -109.200; -615.000; -528.000
229.195;  -40.700; -172.000;   13.000
229.339;  -66.500; -235.000; -305.000
229.483;  -43.400;    5.000; -162.000
229.627;  -17.100; -156.000;  139.000
229.771; -114.600; -218.000; -294.000
229.915;   57.200;  230.000;   79.000
230.059; -176.700; -648.000; -663.000
230.202;  -82.000; -370.000; -317.000
230.346;  -16.300; -107.000;  107.000
230.490; -127.000; -489.000; -521.000
230.634; -238.400; -736.000; -553.000
230.777;  141.700;  478.000;  509.000
230.921; -112.800; -450.000; -359.000
231.065;  -93.800; -246.000; -286.000
231.209;   76.700;  261.000;  265.000
231.352;   26.600;   54.000;   40.000
231.496;   43.300;  568.000;  188.000
231.640; -189.000; -693.000; -621.000
231.783;  139.200;  546.000;  525.000
231.927;  -83.300; -294.000; -365.000
232.071; -247.400; -962.000; -736.000
232.214; -198.900; -980.000; -764.000
232.358; -186.900; -683.000; -599.000
232.502;   24.800;  -19.000;    7.000
232.645; -247.200;-1090.000; -927.000
232.789;  -39.800; -257.000; -218.000
232.933;  -88.500; -407.000; -224.000
233.076; -283.000;-1038.000; -897.000
233.220; -193.400; -752.000; -777.000
233.363; -166.200; -669.000; -477.000
233.507;  137.100;  371.000;  129.000
233.650; -179.500; -764.000; -834.000
233.794;  144.000;  438.000;  461.000
233.938; -125.800; -530.000; -362.000
234.081;  -16.200;  -93.000;   31.000
234.225; -173.800; -631.000; -539.000
234.368; -196.600; -773.000; -723.000
234.512; -126.600; -385.000; -299.000
234.655; -162.100; -582.000; -555.000
234.798; -150.500; -493.000; -466.000
234.942; -254.200; -884.000;-1002.000
235.085; -159.000; -651.000; -443.000
235.229; -135.800; -405.000; -410.000
235.372;  -99.500; -247.000; -191.000
235.516;  -95.600; -397.000; -321.000
235.659;   49.800;   92.000;  121.000
235.802;   -6.700;  -38.000;  -22.000
235.946;   60.900;  335.000;  215.000
236.089;  102.900;  126.000;  250.000
236.233;   90.800;  275.000;  298.000
236.376; -100.600; -235.000; -378.000
236.519;  -55.500; -297.000; -319.000
236.663;  -14.500; -215.000; -117.000
236.806; -297.900;-1029.000; -999.000
236.949;  170.200;  543.000;  431.000
237.092;  118.100;  412.000;  391.000
237.236; -170.500; -589.000; -502.000
237.379;  132.600;  352.000;  428.000
237.522; -224.400; -879.000; -768.000
237.666;  -59.800; -271.000;   18.000
237.809; -255.500; -851.000; -823.000
237.952;   77.900;  469.000;  271.000
238.095;  -88.800; -447.000; -442.000
238.238;  164.300;  688.000;  700.000
238.382;   21.700;  166.000;  103.000
238.525; -127.300; -598.000; -511.000
238.668; -278.800;-1060.000; -985.000
238.811; -217.200; -638.000; -643.000
238.954;  -91.200; -483.000; -334.000
239.097;  210.900;  617.000;  664.000
239.241;   86.500;  394.000;  326.000
239.384;  -41.500; -254.000; -214.000
239.527; -107.700; -424.000; -224.000
239.670; -297.400; -994.000;-1091.000
239.813; -222.300; -696.000; -658.000
239.956;  146.900;  579.000;  473.000
240.099; -204.100; -778.000; -725.000
240.242;  147.000;  428.000;  432.000
240.385;  102.000;  466.000;  450.000
240.528; -134.200; -706.000; -473.000
240.671;   56.300;  189.000;  134.000
240.814; -103.300; -441.000; -158.000
240.957; -192.100; -767.000; -578.000
241.100; -204.300; -779.000; -755.000
241.243; -269.000;-1234.000; -893.000
241.386; -114.600; -508.000; -379.000
241.529; -155.800; -735.000; -547.000
241.672; -134.900; -566.000; -495.000
241.815; -235.100; -832.000; -808.000
241.958;  -44.300; -125.000; -182.000
242.101; -172.900; -545.000; -390.000
242.244;  -91.700; -270.000; -325.000
242.387;  -68.500; -304.000; -246.000
242.530;  110.300;  470.000;  134.000
242.673;  -74.000; -381.000; -309.000
242.815; -242.700; -925.000; -899.000
242.958; -120.600; -482.000; -381.000
243.101;   50.200;  132.000;  187.000
243.244; -156.900; -564.000; -521.000
243.387; -101.500; -313.000; -316.000
243.530; -191.100; -657.000; -674.000
243.672;   22.100;   43.000;  -92.000
243.815; -100.300; -355.000; -283.000
243.958;  -19.100;   98.000;  -26.000
244.101;    5.500;   59.000;  -16.000
244.243;   -8.600;  -47.000;  101.000
244.386; -210.500; -761.000; -630.000
244.529;  -60.300; -132.000; -139.000
244.672; -331.900;-1154.000; -951.000
244.814; -195.900; -621.000; -794.000
244.957; -132.500; -380.000; -304.000
245.100; -148.300; -489.000; -489.000
245.242; -112.600; -387.000; -374.000
245.385;  -28.000;  -59.000;  -39.000
245.528; -201.000; -871.000; -705.000
245.670;  179.000;  612.000;  634.000
245.813; -165.900; -599.000; -547.000
245.956;  -64.800; -324.000; -275.000
246.098; -150.100; -508.000; -650.000
246.241;   21.000;  194.000;   48.000
246.383;    1.400; -119.000;  -73.000
246.526; -180.100; -454.000; -525.000
246.669; -223.100; -889.000; -780.000
246.811;   45.200;  172.000;   -1.000
246.954; -112.800; -512.000; -426.000
247.096;  -79.400;  -84.000;   -6.000
247.239; -105.800; -482.000; -445.000
247.381; -169.100; -647.000; -488.000
247.524;  214.200;  645.000;  679.000
247.666;    4.600;   58.000;   11.000
247.809; -203.300; -887.000; -691.000
247.951;  -43.000;  -75.000;  138.000
248.094;   74.200;  432.000;  308.000
248.236; -344.200;-1262.000;-1238.000
248.378;   37.900; -356.000;  -81.000
248.521;  -45.900; -334.000; -337.000
248.663;  -72.900; -236.000; -267.000
248.806;  -64.800; -300.000; -266.000
248.948; -184.500; -886.000; -763.000
249.090; -114.000; -428.000; -398.000
249.233;  -76.300; -344.000; -381.000
249.375; -138.100; -474.000; -451.000
249.518;  -43.600;  -83.000; -133.000
249.660;   -2.800; -103.000;    3.000
249.802; -318.900;-1303.000;-1189.000
249.945; -135.400; -612.000; -540.000
250.087; -223.900; -834.000; -768.000
250.229; -110.900; -362.000; -480.000
250.371; -113.000; -494.000; -439.000
250.514;  -97.500; -310.000; -244.000
250.656; -107.000;   69.000;  102.000
250.798; -235.000; -849.000; -800.000
250.940;  -96.200; -322.000; -322.000
251.083;  -93.000; -335.000; -111.000
251.225;  144.400;  338.000;  310.000
251.367; -108.500; -274.000; -373.000
251.509;  -39.100; -265.000; -210.000
251.651; -188.100; -731.000; -671.000
251.794;  111.700;  538.000;  632.000
251.936; -210.300; -821.000; -747.000
252.078; -129.600; -540.000; -461.000
252.220; -132.700; -645.000; -477.000
252.362;  155.900;  344.000;  462.000
252.504; -136.400; -677.000; -584.000
252.646; -210.000; -875.000; -722.000
252.788;   -7.100;   14.000; -128.000
252.931;  -46.600; -257.000; -253.000
253.073; -106.400; -376.000; -317.000
253.215;    1.500;  141.000;  122.000
253.357;  -55.600;   82.000; -153.000
253.499;  -83.400; -374.000; -234.000
253.641; -214.800; -749.000; -594.000
253.783; -166.300; -609.000; -527.000
253.925; -185.800; -586.000; -591.000
254.067; -221.500; -744.000; -667.000
254.209;  -55.800; -391.000; -259.000
254.351; -271.800; -865.000; -883.000
254.493; -110.500; -441.000; -417.000
254.635; -206.300; -936.000; -818.000
254.777; -191.500; -752.000; -687.000
254.918; -138.000; -512.000; -430.000
255.060; -131.000; -551.000; -395.000
255.202; -108.100; -473.000; -261.000
255.344; -174.800; -658.000; -455.000
255.486; -137.000; -471.000; -406.000
255.628; -248.200; -780.000; -781.000
255.770; -186.300; -676.000; -536.000
255.912; -127.400; -559.000; -468.000
256.053; -148.800; -730.000; -508.000
256.195;  343.200; 1008.000;  903.000
256.337; -195.400; -861.000; -595.000
256.479;  130.800;  532.000;  416.000
256.621;  -66.800; -394.000; -212.000
256.762; -186.700; -789.000; -742.000
256.904;  159.500;  485.000;  487.000
257.046;  -92.200; -381.000; -271.000
257.188;  -83.500; -351.000; -264.000
257.329; -166.500; -525.000; -464.000
257.471; -210.000; -939.000; -807.000
257.613; -122.200; -584.000; -498.000
257.755; -278.700;-1073.000; -982.000
257.896;   54.700;  286.000;  392.000
258.038; -115.900; -403.000; -352.000
258.180; -102.100; -354.000; -279.000
258.321; -135.600; -581.000; -457.000
258.463;    2.400;  -71.000;  133.000
258.605; -174.600; -562.000; -570.000
258.746; -217.500; -886.000; -772.000
258.888; -294.900;-1026.000;-1020.000
259.029;   38.000;  121.000;   -8.000
259.171; -150.000; -614.000; -550.000
259.313;    7.500;  -49.000;  -47.000
259.454; -122.200; -536.000; -414.000
259.596; -102.400; -483.000; -390.000
259.737; -130.400; -590.000; -474.000
259.879;   91.100;  217.000;  311.000
260.020;  227.300;  901.000;  636.000
260.162;  -76.000; -146.000; -253.000
260.303; -232.800; -768.000; -687.000
260.445; -158.400; -609.000; -613.000
260.586;  100.800;  392.000;  157.000
260.728;  -81.700; -360.000; -248.000
260.869; -133.200; -350.000; -343.000
261.011;  184.500;  706.000;  537.000
261.152; -119.500; -479.000; -319.000
261.293; -142.600; -576.000; -595.000
261.435;  -22.300; -219.000; -184.000
261.576;  -72.100; -455.000; -325.000
261.718;  144.100;  420.000;  470.000
261.859; -250.700; -940.000; -949.000
262.000; -252.700; -951.000;-1016.000
262.142;  -38.600;  -52.000;  -60.000
262.283; -214.500; -808.000; -691.000
262.424; -188.000; -666.000; -625.000
262.566; -296.400;-1161.000; -983.000
262.707; -212.800; -840.000; -830.000
262.848; -204.300; -769.000; -726.000
262.990;  -95.700; -362.000; -345.000
263.131;  208.500;  650.000;  681.000
263.272;   -4.000;  -61.000;  -41.000
263.413; -169.100; -589.000; -561.000
263.555; -116.300; -669.000; -143.000
263.696; -180.600; -550.000; -641.000
263.837; -123.500; -449.000; -551.000
263.978;   10.600;   -5.000;  -77.000
264.119;  -83.900; -283.000; -264.000
264.261; -208.200; -847.000; -630.000
264.402;   11.200;   33.000;   40.000
264.543; -140.000; -509.000; -524.000
264.684;   -2.800;   61.000;  -50.000
264.825; -138.900; -816.000; -538.000
264.966;    9.000;  -84.000;  -67.000
265.107; -211.400; -646.000; -670.000
265.248; -232.300; -825.000; -812.000
265.390;    4.600;  152.000;   -9.000
265.531;  -21.900; -238.000; -107.000
265.672; -159.200; -557.000; -630.000
265.813;  149.900;  563.000;  439.000
265.954; -259.100; -959.000; -940.000
266.095;   -4.300; -372.000; -322.000
266.236; -172.900; -686.000; -548.000
266.377;  -69.100; -243.000; -297.000
266.518; -109.000; -619.000; -547.000
266.659;   77.800;  170.000;  268.000
266.800;   63.800;   83.000;   85.000
266.941; -156.600; -487.000; -478.000
267.082;   56.900;  354.000;   99.000
267.223;  -95.700; -344.000; -273.000
267.364; -217.100; -892.000; -686.000
267.504;  -34.200;    3.000;  135.000
267.645;   -5.300;  160.000;   67.000
267.786;  -56.600; -147.000;  -86.000
267.927; -130.500; -473.000; -379.000
268.068;  -25.800; -186.000;  -61.000
268.209;  -84.000; -175.000; -413.000
268.350; -125.600; -388.000; -532.000
268.490; -182.400; -648.000; -521.000
268.631;   45.700;  127.000;  225.000
268.772; -194.900; -874.000; -647.000
268.913;  -90.100; -328.000; -476.000
269.054;    2.600; -117.000;   12.000
269.194;  -77.500; -418.000; -402.000
269.335; -313.800;-1137.000;-1074.000
269.476;  -12.800;   33.000;  -35.000
269.617; -103.300; -347.000; -392.000
269.757; -178.300; -713.000; -646.000
269.898; -195.100; -856.000; -613.000
270.039; -128.600; -415.000; -405.000
270.180; -271.700; -952.000; -816.000
270.320;  -33.300; -190.000; -250.000
