
Integration time [ms]: 100.000
Averaging Nr. [scans]: 40
Smoothing Nr. [pixels]: 0
Data measured with spectrometer [name]: 2101012U2
Wave   ;Sample   ;Dark     ;Reference
[nm]   ;[counts] ;[counts] ;[counts] 

197.733;   53.225;  516.000;  404.000
197.879;  -69.575; -610.000; -634.000
198.025;  -55.025; -475.000; -420.000
198.171;  -60.425; -602.000; -612.000
198.317;  -33.825; -401.000; -316.000
198.463;  -61.725; -655.000; -404.000
198.609;   26.150;  181.000; -137.000
198.755;  -84.700; -644.000; -410.000
198.901;  -71.925; -505.000; -424.000
199.047;  -61.850; -615.000; -488.000
199.193;  -51.375; -230.000; -468.000
199.339;  -35.675; -222.000; -369.000
199.485;   41.075;  330.000;  271.000
199.631;   12.200;  227.000;  310.000
199.777;  -46.925; -466.000; -398.000
199.923;  -55.150; -610.000; -424.000
200.069;  -13.400; -141.000;  -58.000
200.215;   56.425;  128.000;  453.000
200.361;   53.525;  243.000;  477.000
200.507;  -58.475; -600.000; -373.000
200.653;  -27.575; -371.000; -194.000
200.798;  -33.100; -215.000; -125.000
200.944;  -17.600; -146.000;  -41.000
201.090;   50.025;   61.000;  222.000
201.236;    1.100; -116.000; -158.000
201.382;  130.500;  874.000;  903.000
201.528;    8.825;  -58.000;  -48.000
201.674;  -53.150; -386.000; -293.000
201.819;  -53.000; -540.000; -439.000
201.965;  -78.825; -699.000; -447.000
202.111;  -38.025; -273.000; -226.000
202.257;  -43.900; -250.000; -238.000
202.402;   10.250;   13.000;  -36.000
202.548;  -35.600; -169.000; -116.000
202.694;   85.250;  410.000; -183.000
202.840;  -77.725; -603.000; -531.000
202.985;  -70.475; -681.000; -639.000
203.131; -109.525; -832.000; -666.000
203.277;  -25.525; -199.000; -262.000
203.423;  -45.200; -434.000; -520.000
203.568;  -47.600; -462.000; -237.000
203.714;  -58.075; -535.000; -542.000
203.860;  -84.225; -682.000; -641.000
204.005;   19.225;  112.000;  167.000
204.151;   69.900;  561.000;  556.000
204.296;  -40.500; -354.000; -221.000
204.442;  -73.175; -600.000; -547.000
204.588;  -87.000; -592.000; -579.000
204.733;   31.375;  178.000;  168.000
204.879; -138.950;-1018.000; -822.000
205.025;    5.475;  -99.000;  126.000
205.170;    3.300;  -17.000;   94.000
205.316;   69.700;  438.000;  661.000
205.461;  -79.300; -698.000; -554.000
205.607;   77.600;  609.000;  665.000
205.752;  -77.725; -626.000; -551.000
205.898;  -44.125; -501.000; -391.000
206.043;  -68.075; -578.000; -506.000
206.189;  -43.950; -243.000; -285.000
206.334;   80.425;  554.000;  606.000
206.480;   77.375;  409.000;  239.000
206.625;  -70.175; -529.000; -552.000
206.771;  -51.300; -451.000; -373.000
206.916;  -36.600; -210.000; -537.000
207.062;  -66.400; -545.000; -591.000
207.207;  -65.225; -546.000; -443.000
207.353;   51.950;  185.000;  460.000
207.498;   33.625;  196.000;   85.000
207.643;  -58.625; -501.000; -370.000
207.789; -127.550;-1069.000; -910.000
207.934;  -98.900; -665.000; -713.000
208.080;  -23.275; -154.000;   66.000
208.225;   -1.250;  -22.000;  -57.000
208.370;  -80.425; -727.000; -619.000
208.516;  -81.325; -741.000; -487.000
208.661;  -37.525; -127.000;  -69.000
208.806;  -20.925; -165.000; -171.000
208.952; -126.975;-1044.000; -731.000
209.097;   77.700;  378.000;  349.000
209.242;  -46.425; -307.000; -382.000
209.387;   57.500;  392.000;  350.000
209.533;  -44.200; -321.000; -350.000
209.678;   69.825;  472.000;  543.000
209.823;  -47.125; -408.000; -310.000
209.969; -104.400; -860.000; -757.000
210.114; -111.325; -907.000; -719.000
210.259; -106.850; -939.000; -889.000
210.404;   -1.525; -171.000;  103.000
210.549;    6.525;  108.000;    3.000
210.695;  -11.825;   -3.000;  -95.000
210.840;   41.725;   94.000;   67.000
210.985;  -63.900; -484.000; -303.000
211.130;   66.150;  268.000;  406.000
211.275;   22.250;  207.000;  199.000
211.420;  -47.775; -300.000; -289.000
211.566;  -59.825; -536.000; -489.000
211.711;   24.625;  218.000;  157.000
211.856;  -59.125; -545.000; -519.000
212.001;    7.775;  151.000;   44.000
212.146;   25.350;  153.000;   49.000
212.291;  -37.900; -210.000; -186.000
212.436;  -14.550; -280.000;   -6.000
212.581;  -85.900; -685.000; -653.000
212.726;  -79.650; -487.000; -538.000
212.871;  -49.875; -552.000; -217.000
213.016; -147.075;-1172.000;-1029.000
213.161;   61.275;  406.000;  291.000
213.306;  -53.600; -435.000; -577.000
213.451;  -99.500; -778.000; -689.000
213.596;  -44.575; -455.000; -347.000
213.741;  -52.625; -448.000; -538.000
213.886;  -73.025; -498.000; -517.000
214.031;   -7.325; -294.000; -124.000
214.176;  -50.775; -408.000; -341.000
214.321;  -27.350; -296.000; -157.000
214.466;  -47.175; -163.000;  -43.000
214.611;   -3.650;  -61.000;  -10.000
214.756; -111.825; -948.000; -858.000
214.901;  -25.800; -388.000; -226.000
215.046; -119.150; -797.000; -825.000
215.191;   19.175;  128.000;   35.000
215.336;  -11.225; -157.000;  -19.000
215.480;  -66.500; -684.000; -505.000
215.625;  -13.025; -175.000;  -19.000
215.770;  -86.925; -757.000; -662.000
215.915;   -9.350;   -5.000;  -97.000
216.060;  -11.750; -113.000;  -21.000
216.205; -109.225; -731.000; -779.000
216.349;  -77.800; -470.000; -533.000
216.494; -125.375; -939.000; -867.000
216.639; -127.800; -823.000; -888.000
216.784;  -78.250; -577.000; -525.000
216.929;   52.450;  392.000;  281.000
217.073;  -13.625; -244.000;  -31.000
217.218;    2.375;   78.000;  -47.000
217.363;  -76.500; -656.000; -618.000
217.507;  -77.600; -623.000; -588.000
217.652; -120.900; -845.000; -874.000
217.797;  -94.700; -708.000; -659.000
217.942; -108.625; -856.000; -720.000
218.086;   67.400;  608.000;  539.000
218.231;  -24.300; -174.000;  -26.000
218.376;  -39.025; -337.000; -229.000
218.520;    1.475;  -41.000;   96.000
218.665;  -32.025; -338.000; -204.000
218.810;  -36.200; -275.000; -233.000
218.954;   29.275;  201.000;   35.000
219.099; -107.450; -713.000; -963.000
219.243;  -58.050; -589.000; -554.000
219.388;  -36.950; -264.000; -136.000
219.532;  -17.325; -116.000; -116.000
219.677;  -70.425; -564.000; -521.000
219.822;   18.950;   33.000;   89.000
219.966;    2.600;   17.000;  -99.000
220.111;  -35.350; -328.000;  -40.000
220.255;  -98.775; -797.000; -750.000
220.400;  -18.100; -180.000; -146.000
220.544;  -54.550; -516.000; -450.000
220.689;  -62.100; -422.000; -451.000
220.833;  -19.675; -123.000;  -58.000
220.978;  -52.175; -393.000; -563.000
221.122;   34.675;  319.000;  307.000
221.267; -110.875; -906.000; -837.000
221.411;  -51.500; -478.000; -394.000
221.555;   -6.375; -104.000;  -23.000
221.700;  -38.425; -329.000; -222.000
221.844;   30.250;  255.000;  272.000
221.989;  -53.525; -328.000; -311.000
222.133;  -33.725; -289.000; -307.000
222.277;   -7.325;    5.000;   78.000
222.422;   11.675;  227.000;  113.000
222.566;  -39.325; -381.000; -214.000
222.711;  -47.650; -414.000; -479.000
222.855;  -80.625; -643.000; -586.000
222.999;  -86.425; -642.000; -717.000
223.144;  -33.475; -195.000; -194.000
223.288;   49.650;  423.000;  251.000
223.432;   28.975;  184.000;  230.000
223.576;   16.475;  152.000;  -21.000
223.721;   31.300;  364.000;  273.000
223.865;  -58.150; -472.000; -475.000
224.009;  246.925; 1673.000; 1631.000
224.153;  -84.450; -660.000; -671.000
224.298;  -56.725; -531.000; -489.000
224.442;  -12.225;  -74.000;  -33.000
224.586;  -16.475; -169.000; -106.000
224.730; -100.625; -858.000; -670.000
224.875; -101.100; -739.000; -688.000
225.019;   22.425;  102.000;  188.000
225.163;   60.550;  208.000;  341.000
225.307;   23.725;   97.000;  -91.000
225.451;   48.275;  360.000;  481.000
225.595;   34.875;  264.000;  176.000
225.739;  -14.900; -170.000;  -94.000
225.884;   11.600;   86.000;    5.000
226.028;  -98.550; -760.000; -626.000
226.172;  -28.225; -260.000; -273.000
226.316; -121.925; -941.000; -902.000
226.460;  -68.650; -645.000; -493.000
226.604;  -63.250; -406.000; -400.000
226.748;  -99.775; -836.000; -733.000
226.892;  -33.000; -227.000; -181.000
227.036;  -44.550; -537.000; -447.000
227.180;  -51.400; -551.000; -375.000
227.324;  -66.075; -561.000; -580.000
227.468; -116.075; -819.000; -717.000
227.612;   12.075;  242.000;  -28.000
227.756; -105.775; -845.000; -698.000
227.900;   51.875;  342.000;  441.000
228.044;  -59.675; -509.000; -290.000
228.188;   60.925;  448.000;  568.000
228.332;  -77.175; -546.000; -472.000
228.476;  -24.750; -223.000; -149.000
228.620;  -40.000; -210.000; -150.000
228.764;   79.800;  431.000;  349.000
228.908;  -23.325; -155.000;   30.000
229.052;  -57.450; -615.000; -528.000
229.195;  -25.075; -172.000;   13.000
229.339;  -40.950; -235.000; -305.000
229.483;  -23.075;    5.000; -162.000
229.627;    4.475; -156.000;  139.000
229.771;  -50.425; -218.000; -294.000
229.915;    1.075;  230.000;   79.000
230.059;  -92.900; -648.000; -663.000
230.202;  -42.775; -370.000; -317.000
230.346;   -7.525; -107.000;  107.000
230.490;  -61.550; -489.000; -521.000
230.634; -107.125; -736.000; -553.000
230.777;   77.800;  478.000;  509.000
230.921;  -52.650; -450.000; -359.000
231.065;  -43.725; -246.000; -286.000
231.209;   40.600;  261.000;  265.000
231.352;   14.325;   54.000;   40.000
231.496;   30.750;  568.000;  188.000
231.640;  -79.350; -693.000; -621.000
231.783;   57.725;  546.000;  525.000
231.927;  -35.300; -294.000; -365.000
232.071; -127.575; -962.000; -736.000
232.214; -117.025; -980.000; -764.000
232.358;  -96.925; -683.000; -599.000
232.502;    2.250;  -19.000;    7.000
232.645; -142.975;-1090.000; -927.000
232.789;  -11.175; -257.000; -218.000
232.933;  -45.125; -407.000; -224.000
233.076; -127.975;-1038.000; -897.000
233.220; -103.525; -752.000; -777.000
233.363;  -66.175; -669.000; -477.000
233.507;   55.200;  371.000;  129.000
233.650;  -93.975; -764.000; -834.000
233.794;   34.850;  438.000;  461.000
233.938;  -59.000; -530.000; -362.000
234.081;   -8.450;  -93.000;   31.000
234.225;  -71.075; -631.000; -539.000
234.368; -104.450; -773.000; -723.000
234.512;  -30.550; -385.000; -299.000
234.655;  -95.375; -582.000; -555.000
234.798;  -69.125; -493.000; -466.000
234.942; -129.900; -884.000;-1002.000
235.085;  -82.425; -651.000; -443.000
235.229;  -72.425; -405.000; -410.000
235.372;  -43.725; -247.000; -191.000
235.516;  -55.625; -397.000; -321.000
235.659;   20.700;   92.000;  121.000
235.802;  -14.200;  -38.000;  -22.000
235.946;   40.375;  335.000;  215.000
236.089;   23.425;  126.000;  250.000
236.233;   51.025;  275.000;  298.000
236.376;  -48.250; -235.000; -378.000
236.519;  -51.775; -297.000; -319.000
236.663;  -27.375; -215.000; -117.000
236.806; -121.875;-1029.000; -999.000
236.949;   65.475;  543.000;  431.000
237.092;   55.175;  412.000;  391.000
237.236;  -91.525; -589.000; -502.000
237.379;   62.750;  352.000;  428.000
237.522; -116.100; -879.000; -768.000
237.666;  -22.625; -271.000;   18.000
237.809; -120.100; -851.000; -823.000
237.952;   27.950;  469.000;  271.000
238.095;  -60.600; -447.000; -442.000
238.238;   90.425;  688.000;  700.000
238.382;    1.800;  166.000;  103.000
238.525;  -68.650; -598.000; -511.000
238.668; -133.300;-1060.000; -985.000
238.811;  -89.850; -638.000; -643.000
238.954;  -57.825; -483.000; -334.000
239.097;   94.575;  617.000;  664.000
239.241;   34.475;  394.000;  326.000
239.384;  -26.350; -254.000; -214.000
239.527;  -57.475; -424.000; -224.000
239.670; -149.525; -994.000;-1091.000
239.813; -123.200; -696.000; -658.000
239.956;   65.500;  579.000;  473.000
240.099; -122.650; -778.000; -725.000
240.242;   58.025;  428.000;  432.000
240.385;   65.750;  466.000;  450.000
240.528;  -74.650; -706.000; -473.000
240.671;   10.625;  189.000;  134.000
240.814;  -62.975; -441.000; -158.000
240.957;  -88.200; -767.000; -578.000
241.100;  -87.975; -779.000; -755.000
241.243; -154.575;-1234.000; -893.000
241.386;  -75.250; -508.000; -379.000
241.529;  -93.500; -735.000; -547.000
241.672;  -62.925; -566.000; -495.000
241.815; -113.825; -832.000; -808.000
241.958;  -37.525; -125.000; -182.000
242.101;  -80.575; -545.000; -390.000
242.244;  -48.050; -270.000; -325.000
242.387;  -32.725; -304.000; -246.000
242.530;   49.600;  470.000;  134.000
242.673;  -51.900; -381.000; -309.000
242.815; -119.025; -925.000; -899.000
242.958;  -69.650; -482.000; -381.000
243.101;    9.850;  132.000;  187.000
243.244;  -82.075; -564.000; -521.000
243.387;  -55.050; -313.000; -316.000
243.530; -100.450; -657.000; -674.000
243.672;   -4.775;   43.000;  -92.000
243.815;  -49.500; -355.000; -283.000
243.958;    2.500;   98.000;  -26.000
244.101;    0.150;   59.000;  -16.000
244.243;  -20.325;  -47.000;  101.000
244.386; -106.600; -761.000; -630.000
244.529;  -24.275; -132.000; -139.000
244.672; -173.325;-1154.000; -951.000
244.814; -101.325; -621.000; -794.000
244.957;  -45.225; -380.000; -304.000
245.100;  -89.550; -489.000; -489.000
245.242;  -60.150; -387.000; -374.000
245.385;   -4.200;  -59.000;  -39.000
245.528; -119.650; -871.000; -705.000
245.670;   84.400;  612.000;  634.000
245.813;  -98.450; -599.000; -547.000
245.956;  -40.875; -324.000; -275.000
246.098;  -56.900; -508.000; -650.000
246.241;    1.525;  194.000;   48.000
246.383;  -10.200; -119.000;  -73.000
246.526;  -65.375; -454.000; -525.000
246.669; -114.250; -889.000; -780.000
246.811;   10.625;  172.000;   -1.000
246.954;  -49.300; -512.000; -426.000
247.096;  -43.075;  -84.000;   -6.000
247.239;  -70.375; -482.000; -445.000
247.381;  -73.850; -647.000; -488.000
247.524;   73.600;  645.000;  679.000
247.666;  -20.950;   58.000;   11.000
247.809; -102.550; -887.000; -691.000
247.951;  -15.900;  -75.000;  138.000
248.094;   27.800;  432.000;  308.000
248.236; -152.050;-1262.000;-1238.000
248.378;   -4.075; -356.000;  -81.000
248.521;  -30.850; -334.000; -337.000
248.663;  -42.600; -236.000; -267.000
248.806;  -14.325; -300.000; -266.000
248.948; -100.750; -886.000; -763.000
249.090;  -37.600; -428.000; -398.000
249.233;  -55.700; -344.000; -381.000
249.375;  -64.250; -474.000; -451.000
249.518;  -25.425;  -83.000; -133.000
249.660;   -6.250; -103.000;    3.000
249.802; -175.525;-1303.000;-1189.000
249.945;  -76.650; -612.000; -540.000
250.087; -107.375; -834.000; -768.000
250.229;  -39.750; -362.000; -480.000
250.371;  -80.500; -494.000; -439.000
250.514;  -30.125; -310.000; -244.000
250.656;  -11.375;   69.000;  102.000
250.798; -119.900; -849.000; -800.000
250.940;  -59.550; -322.000; -322.000
251.083;  -27.125; -335.000; -111.000
251.225;   53.000;  338.000;  310.000
251.367;  -50.675; -274.000; -373.000
251.509;  -38.825; -265.000; -210.000
251.651;  -96.875; -731.000; -671.000
251.794;   58.750;  538.000;  632.000
251.936; -106.925; -821.000; -747.000
252.078;  -80.000; -540.000; -461.000
252.220;  -75.025; -645.000; -477.000
252.362;   82.025;  344.000;  462.000
252.504;  -71.675; -677.000; -584.000
252.646; -124.175; -875.000; -722.000
252.788;   -5.325;   14.000; -128.000
252.931;  -33.075; -257.000; -253.000
253.073;  -48.550; -376.000; -317.000
253.215;   -3.125;  141.000;  122.000
253.357;    1.750;   82.000; -153.000
253.499;  -47.300; -374.000; -234.000
253.641;  -94.275; -749.000; -594.000
253.783; -100.375; -609.000; -527.000
253.925;  -77.375; -586.000; -591.000
254.067; -109.425; -744.000; -667.000
254.209;  -36.225; -391.000; -259.000
254.351; -142.300; -865.000; -883.000
254.493;  -62.600; -441.000; -417.000
254.635; -137.650; -936.000; -818.000
254.777;  -98.450; -752.000; -687.000
254.918;  -61.625; -512.000; -430.000
255.060;  -55.975; -551.000; -395.000
255.202;  -47.375; -473.000; -261.000
255.344;  -83.700; -658.000; -455.000
255.486;  -68.350; -471.000; -406.000
255.628; -116.350; -780.000; -781.000
255.770; -101.300; -676.000; -536.000
255.912;  -77.975; -559.000; -468.000
256.053;  -88.900; -730.000; -508.000
256.195;  149.600; 1008.000;  903.000
256.337; -113.450; -861.000; -595.000
256.479;   64.650;  532.000;  416.000
256.621;  -37.950; -394.000; -212.000
256.762;  -94.525; -789.000; -742.000
256.904;   61.125;  485.000;  487.000
257.046;  -46.200; -381.000; -271.000
257.188;  -41.550; -351.000; -264.000
257.329;  -82.475; -525.000; -464.000
257.471; -105.875; -939.000; -807.000
257.613;  -66.100; -584.000; -498.000
257.755; -145.475;-1073.000; -982.000
257.896;   21.825;  286.000;  392.000
258.038;  -78.325; -403.000; -352.000
258.180;  -53.250; -354.000; -279.000
258.321;  -85.575; -581.000; -457.000
258.463;   -2.350;  -71.000;  133.000
258.605;  -89.375; -562.000; -570.000
258.746;  -96.400; -886.000; -772.000
258.888; -150.900;-1026.000;-1020.000
259.029;   17.200;  121.000;   -8.000
259.171;  -88.250; -614.000; -550.000
259.313;    4.275;  -49.000;  -47.000
259.454;  -65.575; -536.000; -414.000
259.596;  -62.225; -483.000; -390.000
259.737;  -79.900; -590.000; -474.000
259.879;   43.050;  217.000;  311.000
260.020;   79.025;  901.000;  636.000
260.162;  -23.175; -146.000; -253.000
260.303; -109.475; -768.000; -687.000
260.445;  -84.875; -609.000; -613.000
260.586;   19.125;  392.000;  157.000
260.728;  -44.025; -360.000; -248.000
260.869;  -63.800; -350.000; -343.000
261.011;   63.525;  706.000;  537.000
261.152;  -71.075; -479.000; -319.000
261.293;  -76.350; -576.000; -595.000
261.435;  -34.500; -219.000; -184.000
261.576;  -41.500; -455.000; -325.000
261.718;   63.375;  420.000;  470.000
261.859; -132.350; -940.000; -949.000
262.000; -122.300; -951.000;-1016.000
262.142;   -3.500;  -52.000;  -60.000
262.283; -111.650; -808.000; -691.000
262.424;  -95.050; -666.000; -625.000
262.566; -152.425;-1161.000; -983.000
262.707; -113.150; -840.000; -830.000
262.848; -120.075; -769.000; -726.000
262.990;  -51.300; -362.000; -345.000
263.131;   74.800;  650.000;  681.000
263.272;   -3.550;  -61.000;  -41.000
263.413; -102.275; -589.000; -561.000
263.555;  -71.225; -669.000; -143.000
263.696;  -91.500; -550.000; -641.000
263.837;  -72.925; -449.000; -551.000
263.978;    7.175;   -5.000;  -77.000
264.119;  -52.825; -283.000; -264.000
264.261; -123.100; -847.000; -630.000
264.402;    0.225;   33.000;   40.000
264.543;  -82.925; -509.000; -524.000
264.684;   -9.300;   61.000;  -50.000
264.825;  -62.425; -816.000; -538.000
264.966;    4.025;  -84.000;  -67.000
265.107; -109.850; -646.000; -670.000
265.248; -112.550; -825.000; -812.000
265.390;   -8.500;  152.000;   -9.000
265.531;  -30.925; -238.000; -107.000
265.672;  -85.675; -557.000; -630.000
265.813;   52.425;  563.000;  439.000
265.954; -145.075; -959.000; -940.000
266.095;  -13.400; -372.000; -322.000
266.236; -101.600; -686.000; -548.000
266.377;  -38.000; -243.000; -297.000
266.518;  -76.225; -619.000; -547.000
266.659;   25.300;  170.000;  268.000
266.800;   13.050;   83.000;   85.000
266.941;  -71.025; -487.000; -478.000
267.082;   25.650;  354.000;   99.000
267.223;  -56.600; -344.000; -273.000
267.364; -111.175; -892.000; -686.000
267.504;  -23.925;    3.000;  135.000
267.645;   -1.650;  160.000;   67.000
267.786;  -29.875; -147.000;  -86.000
267.927;  -86.000; -473.000; -379.000
268.068;  -12.525; -186.000;  -61.000
268.209;  -46.500; -175.000; -413.000
268.350;  -66.050; -388.000; -532.000
268.490;  -85.175; -648.000; -521.000
268.631;   29.200;  127.000;  225.000
268.772; -102.925; -874.000; -647.000
268.913;  -49.250; -328.000; -476.000
269.054;  -11.200; -117.000;   12.000
269.194;  -44.450; -418.000; -402.000
269.335; -161.625;-1137.000;-1074.000
269.476;  -22.150;   33.000;  -35.000
269.617;  -42.725; -347.000; -392.000
269.757;  -82.225; -713.000; -646.000
269.898; -123.500; -856.000; -613.000
270.039;  -64.975; -415.000; -405.000
270.180; -135.900; -952.000; -816.000
270.320;  -23.325; -190.000; -250.000
