
Integration time [ms]: 200.000
Averaging Nr. [scans]: 10
Smoothing Nr. [pixels]: 0
Data measured with spectrometer [name]: 2101012U2
Wave   ;Sample   ;Dark     ;Reference
[nm]   ;[counts] ;[counts] ;[counts] 

197.733;  139.200;  516.000;  404.000
197.879; -163.000; -610.000; -634.000
198.025;  -73.300; -475.000; -420.000
198.171; -144.400; -602.000; -612.000
198.317;  -74.300; -401.000; -316.000
198.463; -114.500; -655.000; -404.000
198.609;   52.800;  181.000; -137.000
198.755; -151.000; -644.000; -410.000
198.901; -153.900; -505.000; -424.000
199.047; -154.400; -615.000; -488.000
199.193;  -85.100; -230.000; -468.000
199.339;  -78.900; -222.000; -369.000
199.485;   89.600;  330.000;  271.000
199.631;   67.700;  227.000;  310.000
199.777; -100.100; -466.000; -398.000
199.923; -129.400; -610.000; -424.000
200.069;  -30.000; -141.000;  -58.000
200.215;  136.000;  128.000;  453.000
200.361;  114.000;  243.000;  477.000
200.507; -167.600; -600.000; -373.000
200.653;  -52.300; -371.000; -194.000
200.798;  -86.200; -215.000; -125.000
200.944;  -38.600; -146.000;  -41.000
201.090;  102.200;   61.000;  222.000
201.236;  -56.900; -116.000; -158.000
201.382;  256.900;  874.000;  903.000
201.528;   35.100;  -58.000;  -48.000
201.674; -133.900; -386.000; -293.000
201.819; -125.800; -540.000; -439.000
201.965; -173.000; -699.000; -447.000
202.111;  -71.800; -273.000; -226.000
202.257;  -87.300; -250.000; -238.000
202.402;   16.700;   13.000;  -36.000
202.548;  -43.700; -169.000; -116.000
202.694;  166.600;  410.000; -183.000
202.840; -149.300; -603.000; -531.000
202.985; -151.800; -681.000; -639.000
203.131; -250.500; -832.000; -666.000
203.277;  -51.900; -199.000; -262.000
203.423;  -81.400; -434.000; -520.000
203.568;  -73.400; -462.000; -237.000
203.714; -150.700; -535.000; -542.000
203.860; -179.300; -682.000; -641.000
204.005;   70.500;  112.000;  167.000
204.151;  170.800;  561.000;  556.000
204.296;  -73.800; -354.000; -221.000
204.442; -159.500; -600.000; -547.000
204.588; -176.600; -592.000; -579.000
204.733;   34.500;  178.000;  168.000
204.879; -284.100;-1018.000; -822.000
205.025;    7.100;  -99.000;  126.000
205.170;   18.800;  -17.000;   94.000
205.316;  172.300;  438.000;  661.000
205.461; -168.600; -698.000; -554.000
205.607;  152.700;  609.000;  665.000
205.752; -157.200; -626.000; -551.000
205.898;  -96.900; -501.000; -391.000
206.043; -121.100; -578.000; -506.000
206.189;  -94.300; -243.000; -285.000
206.334;  158.800;  554.000;  606.000
206.480;  168.600;  409.000;  239.000
206.625; -142.300; -529.000; -552.000
206.771;  -87.500; -451.000; -373.000
206.916;  -49.700; -210.000; -537.000
207.062; -143.300; -545.000; -591.000
207.207; -129.200; -546.000; -443.000
207.353;  117.300;  185.000;  460.000
207.498;   33.800;  196.000;   85.000
207.643; -101.600; -501.000; -370.000
207.789; -270.900;-1069.000; -910.000
207.934; -204.500; -665.000; -713.000
208.080;  -50.100; -154.000;   66.000
208.225;  -23.500;  -22.000;  -57.000
208.370; -191.800; -727.000; -619.000
208.516; -187.600; -741.000; -487.000
208.661;  -48.000; -127.000;  -69.000
208.806;  -40.300; -165.000; -171.000
208.952; -264.000;-1044.000; -731.000
209.097;  137.100;  378.000;  349.000
209.242;  -84.900; -307.000; -382.000
209.387;  126.900;  392.000;  350.000
209.533;  -98.800; -321.000; -350.000
209.678;  158.900;  472.000;  543.000
209.823; -106.700; -408.000; -310.000
209.969; -228.500; -860.000; -757.000
210.114; -195.800; -907.000; -719.000
210.259; -230.000; -939.000; -889.000
210.404;  -17.600; -171.000;  103.000
210.549;    5.800;  108.000;    3.000
210.695;  -13.600;   -3.000;  -95.000
210.840;   53.400;   94.000;   67.000
210.985; -119.900; -484.000; -303.000
211.130;  147.700;  268.000;  406.000
211.275;   58.000;  207.000;  199.000
211.420;  -77.600; -300.000; -289.000
211.566; -135.000; -536.000; -489.000
211.711;   56.300;  218.000;  157.000
211.856; -117.800; -545.000; -519.000
212.001;   23.300;  151.000;   44.000
212.146;   13.700;  153.000;   49.000
212.291;  -22.500; -210.000; -186.000
212.436;  -60.300; -280.000;   -6.000
212.581; -176.900; -685.000; -653.000
212.726; -148.800; -487.000; -538.000
212.871;  -88.000; -552.000; -217.000
213.016; -322.100;-1172.000;-1029.000
213.161;  136.500;  406.000;  291.000
213.306; -130.600; -435.000; -577.000
213.451; -213.700; -778.000; -689.000
213.596;  -93.600; -455.000; -347.000
213.741;  -94.200; -448.000; -538.000
213.886; -156.700; -498.000; -517.000
214.031;  -26.400; -294.000; -124.000
214.176; -119.400; -408.000; -341.000
214.321;  -36.900; -296.000; -157.000
214.466;  -61.700; -163.000;  -43.000
214.611;   20.300;  -61.000;  -10.000
214.756; -264.600; -948.000; -858.000
214.901;  -42.300; -388.000; -226.000
215.046; -236.100; -797.000; -825.000
215.191;   40.700;  128.000;   35.000
215.336;  -23.300; -157.000;  -19.000
215.480; -146.100; -684.000; -505.000
215.625;  -28.700; -175.000;  -19.000
215.770; -151.800; -757.000; -662.000
215.915;   -6.600;   -5.000;  -97.000
216.060;   10.100; -113.000;  -21.000
216.205; -216.700; -731.000; -779.000
216.349; -154.300; -470.000; -533.000
216.494; -267.700; -939.000; -867.000
216.639; -213.200; -823.000; -888.000
216.784; -186.200; -577.000; -525.000
216.929;  116.800;  392.000;  281.000
217.073;  -27.100; -244.000;  -31.000
217.218;   17.800;   78.000;  -47.000
217.363; -160.700; -656.000; -618.000
217.507; -187.600; -623.000; -588.000
217.652; -259.800; -845.000; -874.000
217.797; -195.100; -708.000; -659.000
217.942; -224.600; -856.000; -720.000
218.086;  175.000;  608.000;  539.000
218.231;  -37.300; -174.000;  -26.000
218.376;  -64.700; -337.000; -229.000
218.520;   18.500;  -41.000;   96.000
218.665;  -51.400; -338.000; -204.000
218.810; -100.500; -275.000; -233.000
218.954;   51.300;  201.000;   35.000
219.099; -227.000; -713.000; -963.000
219.243; -161.800; -589.000; -554.000
219.388;  -49.400; -264.000; -136.000
219.532;  -45.900; -116.000; -116.000
219.677; -171.500; -564.000; -521.000
219.822;   17.500;   33.000;   89.000
219.966;    5.600;   17.000;  -99.000
220.111;  -68.300; -328.000;  -40.000
220.255; -198.200; -797.000; -750.000
220.400;  -32.200; -180.000; -146.000
220.544; -148.200; -516.000; -450.000
220.689; -113.100; -422.000; -451.000
220.833;  -28.900; -123.000;  -58.000
220.978;  -94.800; -393.000; -563.000
221.122;   99.100;  319.000;  307.000
221.267; -214.200; -906.000; -837.000
221.411; -130.300; -478.000; -394.000
221.555;  -22.700; -104.000;  -23.000
221.700;  -57.200; -329.000; -222.000
221.844;   66.900;  255.000;  272.000
221.989;  -75.700; -328.000; -311.000
222.133;  -48.800; -289.000; -307.000
222.277;  -21.900;    5.000;   78.000
222.422;   33.300;  227.000;  113.000
222.566;  -65.800; -381.000; -214.000
222.711; -113.300; -414.000; -479.000
222.855; -158.200; -643.000; -586.000
222.999; -157.100; -642.000; -717.000
223.144;  -52.200; -195.000; -194.000
223.288;  131.600;  423.000;  251.000
223.432;   42.000;  184.000;  230.000
223.576;   56.200;  152.000;  -21.000
223.721;   80.000;  364.000;  273.000
223.865;  -89.700; -472.000; -475.000
224.009;  552.000; 1673.000; 1631.000
224.153; -143.600; -660.000; -671.000
224.298; -111.100; -531.000; -489.000
224.442;  -24.700;  -74.000;  -33.000
224.586;   -6.800; -169.000; -106.000
224.730; -197.400; -858.000; -670.000
224.875; -255.500; -739.000; -688.000
225.019;   42.000;  102.000;  188.000
225.163;  117.500;  208.000;  341.000
225.307;   43.000;   97.000;  -91.000
225.451;   92.500;  360.000;  481.000
225.595;   80.200;  264.000;  176.000
225.739;  -18.100; -170.000;  -94.000
225.884;   13.200;   86.000;    5.000
226.028; -189.600; -760.000; -626.000
226.172;  -66.100; -260.000; -273.000
226.316; -230.600; -941.000; -902.000
226.460; -127.800; -645.000; -493.000
226.604; -133.600; -406.000; -400.000
226.748; -214.000; -836.000; -733.000
226.892;  -59.300; -227.000; -181.000
227.036; -106.900; -537.000; -447.000
227.180;  -97.300; -551.000; -375.000
227.324; -127.800; -561.000; -580.000
227.468; -224.300; -819.000; -717.000
227.612;   36.900;  242.000;  -28.000
227.756; -230.900; -845.000; -698.000
227.900;  115.500;  342.000;  441.000
228.044; -123.700; -509.000; -290.000
228.188;  127.800;  448.000;  568.000
228.332; -157.600; -546.000; -472.000
228.476;  -42.300; -223.000; -149.000
228.620;  -35.400; -210.000; -150.000
228.764;  177.900;  431.000;  349.000
228.908;  -56.600; -155.000;   30.000
229.052; -137.500; -615.000; -528.000
229.195;  -40.300; -172.000;   13.000
229.339;  -13.400; -235.000; -305.000
229.483;  -46.500;    5.000; -162.000
229.627;   21.000; -156.000;  139.000
229.771;  -64.200; -218.000; -294.000
229.915;   55.600;  230.000;   79.000
230.059; -165.600; -648.000; -663.000
230.202;  -94.900; -370.000; -317.000
230.346;  -10.800; -107.000;  107.000
230.490; -119.100; -489.000; -521.000
230.634; -181.700; -736.000; -553.000
230.777;  205.000;  478.000;  509.000
230.921; -115.200; -450.000; -359.000
231.065;  -61.800; -246.000; -286.000
231.209;   43.900;  261.000;  265.000
231.352;   25.500;   54.000;   40.000
231.496;   42.400;  568.000;  188.000
231.640; -170.200; -693.000; -621.000
231.783;  138.300;  546.000;  525.000
231.927;  -58.100; -294.000; -365.000
232.071; -218.800; -962.000; -736.000
232.214; -219.500; -980.000; -764.000
232.358; -188.100; -683.000; -599.000
232.502;   25.400;  -19.000;    7.000
232.645; -239.500;-1090.000; -927.000
232.789;  -19.700; -257.000; -218.000
232.933;  -91.700; -407.000; -224.000
233.076; -251.100;-1038.000; -897.000
233.220; -208.700; -752.000; -777.000
233.363; -135.100; -669.000; -477.000
233.507;  129.100;  371.000;  129.000
233.650; -179.100; -764.000; -834.000
233.794;   96.700;  438.000;  461.000
233.938; -104.200; -530.000; -362.000
234.081;  -44.200;  -93.000;   31.000
234.225; -113.300; -631.000; -539.000
234.368; -219.800; -773.000; -723.000
234.512;  -83.300; -385.000; -299.000
234.655; -179.500; -582.000; -555.000
234.798; -129.300; -493.000; -466.000
234.942; -258.500; -884.000;-1002.000
235.085; -157.700; -651.000; -443.000
235.229; -127.300; -405.000; -410.000
235.372; -106.400; -247.000; -191.000
235.516;  -88.300; -397.000; -321.000
235.659;   82.400;   92.000;  121.000
235.802;  -14.700;  -38.000;  -22.000
235.946;   71.800;  335.000;  215.000
236.089;   57.000;  126.000;  250.000
236.233;  109.400;  275.000;  298.000
236.376;  -85.500; -235.000; -378.000
236.519;  -86.200; -297.000; -319.000
236.663;  -59.300; -215.000; -117.000
236.806; -257.000;-1029.000; -999.000
236.949;  127.100;  543.000;  431.000
237.092;  147.500;  412.000;  391.000
237.236; -146.000; -589.000; -502.000
237.379;  147.000;  352.000;  428.000
237.522; -216.100; -879.000; -768.000
237.666;   13.100; -271.000;   18.000
237.809; -239.700; -851.000; -823.000
237.952;   83.900;  469.000;  271.000
238.095; -130.900; -447.000; -442.000
238.238;  201.200;  688.000;  700.000
238.382;  -12.700;  166.000;  103.000
238.525; -142.900; -598.000; -511.000
238.668; -266.700;-1060.000; -985.000
238.811; -172.500; -638.000; -643.000
238.954;  -81.200; -483.000; -334.000
239.097;  237.700;  617.000;  664.000
239.241;   68.500;  394.000;  326.000
239.384;  -70.100; -254.000; -214.000
239.527; -125.000; -424.000; -224.000
239.670; -301.200; -994.000;-1091.000
239.813; -218.600; -696.000; -658.000
239.956;  198.500;  579.000;  473.000
240.099; -225.800; -778.000; -725.000
240.242;  153.000;  428.000;  432.000
240.385;  126.300;  466.000;  450.000
240.528; -125.300; -706.000; -473.000
240.671;   55.100;  189.000;  134.000
240.814;  -46.500; -441.000; -158.000
240.957; -199.400; -767.000; -578.000
241.100; -182.000; -779.000; -755.000
241.243; -277.900;-1234.000; -893.000
241.386; -133.100; -508.000; -379.000
241.529; -167.500; -735.000; -547.000
241.672; -123.400; -566.000; -495.000
241.815; -231.400; -832.000; -808.000
241.958;  -17.600; -125.000; -182.000
242.101; -168.400; -545.000; -390.000
242.244;  -68.400; -270.000; -325.000
242.387;  -45.300; -304.000; -246.000
242.530;   94.300;  470.000;  134.000
242.673;  -59.600; -381.000; -309.000
242.815; -255.100; -925.000; -899.000
242.958;  -85.600; -482.000; -381.000
243.101;   36.100;  132.000;  187.000
243.244; -154.300; -564.000; -521.000
243.387;  -98.200; -313.000; -316.000
243.530; -176.500; -657.000; -674.000
243.672;    8.900;   43.000;  -92.000
243.815; -102.600; -355.000; -283.000
243.958;    6.600;   98.000;  -26.000
244.101;   16.400;   59.000;  -16.000
244.243;  -30.500;  -47.000;  101.000
244.386; -206.500; -761.000; -630.000
244.529;  -50.100; -132.000; -139.000
244.672; -300.400;-1154.000; -951.000
244.814; -207.300; -621.000; -794.000
244.957; -115.800; -380.000; -304.000
245.100; -149.500; -489.000; -489.000
245.242; -120.100; -387.000; -374.000
245.385;  -11.600;  -59.000;  -39.000
245.528; -233.000; -871.000; -705.000
245.670;  165.500;  612.000;  634.000
245.813; -176.700; -599.000; -547.000
245.956;  -61.400; -324.000; -275.000
246.098; -153.800; -508.000; -650.000
246.241;   27.900;  194.000;   48.000
246.383;    9.100; -119.000;  -73.000
246.526; -108.000; -454.000; -525.000
246.669; -238.700; -889.000; -780.000
246.811;   51.800;  172.000;   -1.000
246.954; -115.100; -512.000; -426.000
247.096;  -52.700;  -84.000;   -6.000
247.239; -113.600; -482.000; -445.000
247.381; -127.100; -647.000; -488.000
247.524;  208.800;  645.000;  679.000
247.666;   -2.500;   58.000;   11.000
247.809; -248.800; -887.000; -691.000
247.951;  -31.200;  -75.000;  138.000
248.094;   89.200;  432.000;  308.000
248.236; -338.300;-1262.000;-1238.000
248.378;  -19.900; -356.000;  -81.000
248.521;  -16.800; -334.000; -337.000
248.663;  -52.000; -236.000; -267.000
248.806;  -54.200; -300.000; -266.000
248.948; -202.600; -886.000; -763.000
249.090;  -93.000; -428.000; -398.000
249.233;  -73.800; -344.000; -381.000
249.375; -137.800; -474.000; -451.000
249.518;  -11.800;  -83.000; -133.000
249.660;   -5.400; -103.000;    3.000
249.802; -340.700;-1303.000;-1189.000
249.945; -141.900; -612.000; -540.000
250.087; -225.000; -834.000; -768.000
250.229;  -78.000; -362.000; -480.000
250.371; -169.500; -494.000; -439.000
250.514;  -91.000; -310.000; -244.000
250.656; -128.200;   69.000;  102.000
250.798; -266.900; -849.000; -800.000
250.940; -113.800; -322.000; -322.000
251.083;  -37.400; -335.000; -111.000
251.225;  134.800;  338.000;  310.000
251.367;  -90.100; -274.000; -373.000
251.509;  -69.000; -265.000; -210.000
251.651; -207.400; -731.000; -671.000
251.794;  159.400;  538.000;  632.000
251.936; -209.900; -821.000; -747.000
252.078; -152.500; -540.000; -461.000
252.220; -135.600; -645.000; -477.000
252.362;  149.500;  344.000;  462.000
252.504; -137.600; -677.000; -584.000
252.646; -219.900; -875.000; -722.000
252.788;    0.200;   14.000; -128.000
252.931;  -64.600; -257.000; -253.000
253.073;  -70.500; -376.000; -317.000
253.215;   47.300;  141.000;  122.000
253.357;   -0.300;   82.000; -153.000
253.499;  -86.100; -374.000; -234.000
253.641; -172.800; -749.000; -594.000
253.783; -161.100; -609.000; -527.000
253.925; -150.800; -586.000; -591.000
254.067; -242.700; -744.000; -667.000
254.209;  -47.600; -391.000; -259.000
254.351; -258.200; -865.000; -883.000
254.493; -123.500; -441.000; -417.000
254.635; -234.700; -936.000; -818.000
254.777; -166.000; -752.000; -687.000
254.918; -145.200; -512.000; -430.000
255.060;  -90.100; -551.000; -395.000
255.202; -126.200; -473.000; -261.000
255.344; -155.800; -658.000; -455.000
255.486; -119.500; -471.000; -406.000
255.628; -213.900; -780.000; -781.000
255.770; -172.200; -676.000; -536.000
255.912; -144.100; -559.000; -468.000
256.053; -162.900; -730.000; -508.000
256.195;  355.000; 1008.000;  903.000
256.337; -192.200; -861.000; -595.000
256.479;  119.300;  532.000;  416.000
256.621;  -71.100; -394.000; -212.000
256.762; -166.100; -789.000; -742.000
256.904;   96.700;  485.000;  487.000
257.046;  -79.900; -381.000; -271.000
257.188;  -57.200; -351.000; -264.000
257.329; -140.500; -525.000; -464.000
257.471; -221.300; -939.000; -807.000
257.613; -101.800; -584.000; -498.000
257.755; -312.400;-1073.000; -982.000
257.896;   97.000;  286.000;  392.000
258.038; -131.600; -403.000; -352.000
258.180;  -24.200; -354.000; -279.000
258.321; -156.700; -581.000; -457.000
258.463;   17.200;  -71.000;  133.000
258.605; -151.700; -562.000; -570.000
258.746; -205.500; -886.000; -772.000
258.888; -303.700;-1026.000;-1020.000
259.029;   63.800;  121.000;   -8.000
259.171; -188.100; -614.000; -550.000
259.313;   12.600;  -49.000;  -47.000
259.454; -134.400; -536.000; -414.000
259.596;  -49.800; -483.000; -390.000
259.737; -124.600; -590.000; -474.000
259.879;   78.300;  217.000;  311.000
260.020;  237.900;  901.000;  636.000
260.162;  -26.800; -146.000; -253.000
260.303; -242.200; -768.000; -687.000
260.445; -167.000; -609.000; -613.000
260.586;  102.700;  392.000;  157.000
260.728;  -89.600; -360.000; -248.000
260.869; -146.400; -350.000; -343.000
261.011;  176.100;  706.000;  537.000
261.152; -125.300; -479.000; -319.000
261.293; -177.000; -576.000; -595.000
261.435;  -64.800; -219.000; -184.000
261.576;  -86.800; -455.000; -325.000
261.718;  126.600;  420.000;  470.000
261.859; -247.200; -940.000; -949.000
262.000; -265.400; -951.000;-1016.000
262.142;  -18.300;  -52.000;  -60.000
262.283; -219.500; -808.000; -691.000
262.424; -155.900; -666.000; -625.000
262.566; -300.100;-1161.000; -983.000
262.707; -261.700; -840.000; -830.000
262.848; -223.700; -769.000; -726.000
262.990;  -93.700; -362.000; -345.000
263.131;  187.800;  650.000;  681.000
263.272;    0.200;  -61.000;  -41.000
263.413; -180.200; -589.000; -561.000
263.555; -123.700; -669.000; -143.000
263.696; -122.400; -550.000; -641.000
263.837;  -64.400; -449.000; -551.000
263.978;    9.100;   -5.000;  -77.000
264.119;  -66.600; -283.000; -264.000
264.261; -222.000; -847.000; -630.000
264.402;  -24.000;   33.000;   40.000
264.543; -126.200; -509.000; -524.000
264.684;    5.100;   61.000;  -50.000
264.825; -127.100; -816.000; -538.000
264.966;    6.400;  -84.000;  -67.000
265.107; -240.900; -646.000; -670.000
265.248; -225.100; -825.000; -812.000
265.390;   22.400;  152.000;   -9.000
265.531;  -32.500; -238.000; -107.000
265.672; -167.900; -557.000; -630.000
265.813;  146.800;  563.000;  439.000
265.954; -289.500; -959.000; -940.000
266.095;  -44.400; -372.000; -322.000
266.236; -177.600; -686.000; -548.000
266.377;  -64.300; -243.000; -297.000
266.518; -121.000; -619.000; -547.000
266.659;  118.700;  170.000;  268.000
266.800;   31.100;   83.000;   85.000
266.941; -132.000; -487.000; -478.000
267.082;   41.700;  354.000;   99.000
267.223;  -77.200; -344.000; -273.000
267.364; -218.500; -892.000; -686.000
267.504;    5.900;    3.000;  135.000
267.645;   -1.900;  160.000;   67.000
267.786;  -35.100; -147.000;  -86.000
267.927; -120.600; -473.000; -379.000
268.068;  -27.200; -186.000;  -61.000
268.209;  -78.700; -175.000; -413.000
268.350;  -93.800; -388.000; -532.000
268.490; -146.500; -648.000; -521.000
268.631;   90.600;  127.000;  225.000
268.772; -213.100; -874.000; -647.000
268.913;  -74.000; -328.000; -476.000
269.054;   -4.900; -117.000;   12.000
269.194;  -92.300; -418.000; -402.000
269.335; -290.900;-1137.000;-1074.000
269.476;   15.400;   33.000;  -35.000
269.617;  -68.100; -347.000; -392.000
269.757; -147.300; -713.000; -646.000
269.898; -205.700; -856.000; -613.000
270.039; -104.200; -415.000; -405.000
270.180; -267.500; -952.000; -816.000
270.320;  -69.900; -190.000; -250.000
