
Integration time [ms]: 100.000
Averaging Nr. [scans]: 40
Smoothing Nr. [pixels]: 0
Data measured with spectrometer [name]: 2101012U2
Wave   ;Sample   ;Dark     ;Reference
[nm]   ;[counts] ;[counts] ;[counts] 

197.733;   61.850;  516.000;  404.000
197.879;  -76.375; -610.000; -634.000
198.025;  -36.800; -475.000; -420.000
198.171;  -68.825; -602.000; -612.000
198.317;  -14.000; -401.000; -316.000
198.463;  -60.400; -655.000; -404.000
198.609;   35.125;  181.000; -137.000
198.755;  -71.425; -644.000; -410.000
198.901;  -68.525; -505.000; -424.000
199.047;  -62.475; -615.000; -488.000
199.193;  -24.575; -230.000; -468.000
199.339;  -49.725; -222.000; -369.000
199.485;   50.025;  330.000;  271.000
199.631;    9.025;  227.000;  310.000
199.777;  -30.525; -466.000; -398.000
199.923;  -69.650; -610.000; -424.000
200.069;   -0.675; -141.000;  -58.000
200.215;   55.100;  128.000;  453.000
200.361;   51.575;  243.000;  477.000
200.507;  -56.600; -600.000; -373.000
200.653;  -20.925; -371.000; -194.000
200.798;  -31.900; -215.000; -125.000
200.944;    7.225; -146.000;  -41.000
201.090;   38.075;   61.000;  222.000
201.236;   -1.625; -116.000; -158.000
201.382;  131.725;  874.000;  903.000
201.528;    4.800;  -58.000;  -48.000
201.674;  -57.000; -386.000; -293.000
201.819;  -41.075; -540.000; -439.000
201.965;  -72.625; -699.000; -447.000
202.111;  -24.400; -273.000; -226.000
202.257;  -42.350; -250.000; -238.000
202.402;    7.525;   13.000;  -36.000
202.548;  -13.850; -169.000; -116.000
202.694;  103.725;  410.000; -183.000
202.840;  -72.700; -603.000; -531.000
202.985;  -52.075; -681.000; -639.000
203.131;  -99.725; -832.000; -666.000
203.277;  -21.025; -199.000; -262.000
203.423;  -48.575; -434.000; -520.000
203.568;  -36.650; -462.000; -237.000
203.714;  -61.575; -535.000; -542.000
203.860;  -70.600; -682.000; -641.000
204.005;   12.875;  112.000;  167.000
204.151;   87.400;  561.000;  556.000
204.296;  -41.700; -354.000; -221.000
204.442;  -51.450; -600.000; -547.000
204.588;  -71.050; -592.000; -579.000
204.733;   29.900;  178.000;  168.000
204.879; -110.975;-1018.000; -822.000
205.025;   10.575;  -99.000;  126.000
205.170;   -3.525;  -17.000;   94.000
205.316;   74.875;  438.000;  661.000
205.461;  -88.575; -698.000; -554.000
205.607;   79.925;  609.000;  665.000
205.752;  -82.550; -626.000; -551.000
205.898;  -46.200; -501.000; -391.000
206.043;  -51.625; -578.000; -506.000
206.189;  -32.950; -243.000; -285.000
206.334;   83.000;  554.000;  606.000
206.480;   94.600;  409.000;  239.000
206.625;  -71.150; -529.000; -552.000
206.771;  -27.150; -451.000; -373.000
206.916;  -22.400; -210.000; -537.000
207.062;  -70.750; -545.000; -591.000
207.207;  -60.425; -546.000; -443.000
207.353;   66.750;  185.000;  460.000
207.498;   20.650;  196.000;   85.000
207.643;  -57.850; -501.000; -370.000
207.789; -121.500;-1069.000; -910.000
207.934;  -84.775; -665.000; -713.000
208.080;  -22.375; -154.000;   66.000
208.225;    6.400;  -22.000;  -57.000
208.370;  -75.325; -727.000; -619.000
208.516;  -70.525; -741.000; -487.000
208.661;  -37.150; -127.000;  -69.000
208.806;  -22.125; -165.000; -171.000
208.952; -130.075;-1044.000; -731.000
209.097;   69.650;  378.000;  349.000
209.242;  -46.850; -307.000; -382.000
209.387;   69.525;  392.000;  350.000
209.533;  -44.700; -321.000; -350.000
209.678;   82.950;  472.000;  543.000
209.823;  -53.000; -408.000; -310.000
209.969;  -84.275; -860.000; -757.000
210.114; -102.500; -907.000; -719.000
210.259; -102.375; -939.000; -889.000
210.404;  -20.575; -171.000;  103.000
210.549;   30.025;  108.000;    3.000
210.695;  -14.100;   -3.000;  -95.000
210.840;   29.300;   94.000;   67.000
210.985;  -57.850; -484.000; -303.000
211.130;   73.200;  268.000;  406.000
211.275;   13.075;  207.000;  199.000
211.420;  -42.175; -300.000; -289.000
211.566;  -66.350; -536.000; -489.000
211.711;   18.275;  218.000;  157.000
211.856;  -56.950; -545.000; -519.000
212.001;   34.625;  151.000;   44.000
212.146;   21.000;  153.000;   49.000
212.291;  -22.775; -210.000; -186.000
212.436;  -34.825; -280.000;   -6.000
212.581;  -68.375; -685.000; -653.000
212.726;  -76.050; -487.000; -538.000
212.871;  -25.725; -552.000; -217.000
213.016; -142.775;-1172.000;-1029.000
213.161;   56.200;  406.000;  291.000
213.306;  -64.050; -435.000; -577.000
213.451;  -79.700; -778.000; -689.000
213.596;  -30.250; -455.000; -347.000
213.741;  -45.750; -448.000; -538.000
213.886;  -74.225; -498.000; -517.000
214.031;   -7.600; -294.000; -124.000
214.176;  -46.625; -408.000; -341.000
214.321;  -12.575; -296.000; -157.000
214.466;  -30.325; -163.000;  -43.000
214.611;    1.650;  -61.000;  -10.000
214.756; -110.350; -948.000; -858.000
214.901;  -23.375; -388.000; -226.000
215.046; -121.375; -797.000; -825.000
215.191;   30.700;  128.000;   35.000
215.336;  -16.875; -157.000;  -19.000
215.480;  -63.150; -684.000; -505.000
215.625;   -2.450; -175.000;  -19.000
215.770;  -67.450; -757.000; -662.000
215.915;    7.475;   -5.000;  -97.000
216.060;   12.425; -113.000;  -21.000
216.205;  -98.250; -731.000; -779.000
216.349;  -58.725; -470.000; -533.000
216.494; -130.875; -939.000; -867.000
216.639; -110.150; -823.000; -888.000
216.784;  -80.800; -577.000; -525.000
216.929;   45.875;  392.000;  281.000
217.073;   -4.225; -244.000;  -31.000
217.218;   -3.575;   78.000;  -47.000
217.363;  -84.625; -656.000; -618.000
217.507;  -78.425; -623.000; -588.000
217.652; -116.025; -845.000; -874.000
217.797;  -89.300; -708.000; -659.000
217.942;  -90.925; -856.000; -720.000
218.086;   63.925;  608.000;  539.000
218.231;  -26.325; -174.000;  -26.000
218.376;  -31.125; -337.000; -229.000
218.520;    1.150;  -41.000;   96.000
218.665;  -31.500; -338.000; -204.000
218.810;  -36.350; -275.000; -233.000
218.954;   19.650;  201.000;   35.000
219.099;  -97.775; -713.000; -963.000
219.243;  -62.200; -589.000; -554.000
219.388;  -37.050; -264.000; -136.000
219.532;  -17.775; -116.000; -116.000
219.677;  -81.350; -564.000; -521.000
219.822;   14.675;   33.000;   89.000
219.966;   -5.475;   17.000;  -99.000
220.111;  -36.025; -328.000;  -40.000
220.255; -100.475; -797.000; -750.000
220.400;  -18.650; -180.000; -146.000
220.544;  -77.600; -516.000; -450.000
220.689;  -40.275; -422.000; -451.000
220.833;  -30.500; -123.000;  -58.000
220.978;  -36.250; -393.000; -563.000
221.122;   20.550;  319.000;  307.000
221.267; -104.875; -906.000; -837.000
221.411;  -67.675; -478.000; -394.000
221.555;   -2.825; -104.000;  -23.000
221.700;  -34.925; -329.000; -222.000
221.844;   31.450;  255.000;  272.000
221.989;  -43.925; -328.000; -311.000
222.133;  -15.975; -289.000; -307.000
222.277;   -8.975;    5.000;   78.000
222.422;   26.525;  227.000;  113.000
222.566;  -29.200; -381.000; -214.000
222.711;  -38.625; -414.000; -479.000
222.855;  -77.300; -643.000; -586.000
222.999;  -71.300; -642.000; -717.000
223.144;  -31.000; -195.000; -194.000
223.288;   52.800;  423.000;  251.000
223.432;   14.500;  184.000;  230.000
223.576;   24.800;  152.000;  -21.000
223.721;   29.775;  364.000;  273.000
223.865;  -49.125; -472.000; -475.000
224.009;  224.550; 1673.000; 1631.000
224.153;  -62.925; -660.000; -671.000
224.298;  -66.375; -531.000; -489.000
224.442;  -11.150;  -74.000;  -33.000
224.586;   -0.725; -169.000; -106.000
224.730;  -76.700; -858.000; -670.000
224.875; -108.400; -739.000; -688.000
225.019;   15.500;  102.000;  188.000
225.163;   43.750;  208.000;  341.000
225.307;   21.625;   97.000;  -91.000
225.451;   43.225;  360.000;  481.000
225.595;   37.125;  264.000;  176.000
225.739;  -18.425; -170.000;  -94.000
225.884;   28.225;   86.000;    5.000
226.028;  -93.025; -760.000; -626.000
226.172;  -31.025; -260.000; -273.000
226.316; -112.925; -941.000; -902.000
226.460;  -56.375; -645.000; -493.000
226.604;  -57.350; -406.000; -400.000
226.748;  -92.175; -836.000; -733.000
226.892;  -29.025; -227.000; -181.000
227.036;  -42.050; -537.000; -447.000
227.180;  -58.350; -551.000; -375.000
227.324;  -47.975; -561.000; -580.000
227.468; -115.800; -819.000; -717.000
227.612;   18.025;  242.000;  -28.000
227.756;  -93.350; -845.000; -698.000
227.900;   54.900;  342.000;  441.000
228.044;  -63.050; -509.000; -290.000
228.188;   54.950;  448.000;  568.000
228.332;  -82.650; -546.000; -472.000
228.476;  -15.400; -223.000; -149.000
228.620;  -18.075; -210.000; -150.000
228.764;   80.150;  431.000;  349.000
228.908;  -17.550; -155.000;   30.000
229.052;  -55.125; -615.000; -528.000
229.195;  -20.600; -172.000;   13.000
229.339;  -21.925; -235.000; -305.000
229.483;  -30.200;    5.000; -162.000
229.627;    6.225; -156.000;  139.000
229.771;  -34.825; -218.000; -294.000
229.915;   19.375;  230.000;   79.000
230.059;  -93.350; -648.000; -663.000
230.202;  -35.125; -370.000; -317.000
230.346;  -11.775; -107.000;  107.000
230.490;  -38.575; -489.000; -521.000
230.634; -117.450; -736.000; -553.000
230.777;   73.700;  478.000;  509.000
230.921;  -64.375; -450.000; -359.000
231.065;  -38.925; -246.000; -286.000
231.209;   23.075;  261.000;  265.000
231.352;   17.375;   54.000;   40.000
231.496;   12.700;  568.000;  188.000
231.640;  -89.375; -693.000; -621.000
231.783;   59.725;  546.000;  525.000
231.927;  -36.025; -294.000; -365.000
232.071; -117.150; -962.000; -736.000
232.214; -100.375; -980.000; -764.000
232.358;  -93.500; -683.000; -599.000
232.502;   15.050;  -19.000;    7.000
232.645; -139.325;-1090.000; -927.000
232.789;  -30.050; -257.000; -218.000
232.933;  -45.250; -407.000; -224.000
233.076; -115.450;-1038.000; -897.000
233.220;  -98.725; -752.000; -777.000
233.363;  -69.575; -669.000; -477.000
233.507;   49.700;  371.000;  129.000
233.650;  -80.950; -764.000; -834.000
233.794;   43.525;  438.000;  461.000
233.938;  -56.650; -530.000; -362.000
234.081;  -15.400;  -93.000;   31.000
234.225;  -57.550; -631.000; -539.000
234.368; -114.825; -773.000; -723.000
234.512;  -44.175; -385.000; -299.000
234.655;  -89.925; -582.000; -555.000
234.798;  -54.025; -493.000; -466.000
234.942; -124.300; -884.000;-1002.000
235.085;  -55.850; -651.000; -443.000
235.229;  -63.725; -405.000; -410.000
235.372;  -42.175; -247.000; -191.000
235.516;  -58.525; -397.000; -321.000
235.659;   28.275;   92.000;  121.000
235.802;  -19.650;  -38.000;  -22.000
235.946;   40.875;  335.000;  215.000
236.089;   22.200;  126.000;  250.000
236.233;   43.950;  275.000;  298.000
236.376;  -42.275; -235.000; -378.000
236.519;  -34.950; -297.000; -319.000
236.663;  -18.700; -215.000; -117.000
236.806; -116.750;-1029.000; -999.000
236.949;   49.750;  543.000;  431.000
237.092;   66.625;  412.000;  391.000
237.236;  -87.950; -589.000; -502.000
237.379;   57.600;  352.000;  428.000
237.522; -106.925; -879.000; -768.000
237.666;  -10.200; -271.000;   18.000
237.809; -123.275; -851.000; -823.000
237.952;   37.325;  469.000;  271.000
238.095;  -67.075; -447.000; -442.000
238.238;   95.700;  688.000;  700.000
238.382;   -0.800;  166.000;  103.000
238.525;  -74.650; -598.000; -511.000
238.668; -118.475;-1060.000; -985.000
238.811;  -76.575; -638.000; -643.000
238.954;  -61.025; -483.000; -334.000
239.097;   95.825;  617.000;  664.000
239.241;   17.575;  394.000;  326.000
239.384;  -15.175; -254.000; -214.000
239.527;  -50.450; -424.000; -224.000
239.670; -127.925; -994.000;-1091.000
239.813;  -96.050; -696.000; -658.000
239.956;   67.500;  579.000;  473.000
240.099; -111.550; -778.000; -725.000
240.242;   57.000;  428.000;  432.000
240.385;   44.250;  466.000;  450.000
240.528;  -60.025; -706.000; -473.000
240.671;   20.300;  189.000;  134.000
240.814;  -34.875; -441.000; -158.000
240.957;  -93.525; -767.000; -578.000
241.100;  -87.425; -779.000; -755.000
241.243; -130.375;-1234.000; -893.000
241.386;  -57.800; -508.000; -379.000
241.529;  -84.675; -735.000; -547.000
241.672;  -50.300; -566.000; -495.000
241.815; -123.925; -832.000; -808.000
241.958;  -25.500; -125.000; -182.000
242.101;  -83.425; -545.000; -390.000
242.244;  -32.525; -270.000; -325.000
242.387;  -27.600; -304.000; -246.000
242.530;   60.675;  470.000;  134.000
242.673;  -37.625; -381.000; -309.000
242.815; -113.375; -925.000; -899.000
242.958;  -78.125; -482.000; -381.000
243.101;   13.675;  132.000;  187.000
243.244;  -78.725; -564.000; -521.000
243.387;  -46.925; -313.000; -316.000
243.530;  -94.050; -657.000; -674.000
243.672;    2.500;   43.000;  -92.000
243.815;  -57.550; -355.000; -283.000
243.958;    7.050;   98.000;  -26.000
244.101;    3.100;   59.000;  -16.000
244.243;  -10.400;  -47.000;  101.000
244.386; -103.850; -761.000; -630.000
244.529;  -20.850; -132.000; -139.000
244.672; -151.150;-1154.000; -951.000
244.814;  -93.900; -621.000; -794.000
244.957;  -68.375; -380.000; -304.000
245.100;  -71.250; -489.000; -489.000
245.242;  -62.675; -387.000; -374.000
245.385;   -2.625;  -59.000;  -39.000
245.528; -121.400; -871.000; -705.000
245.670;   95.575;  612.000;  634.000
245.813;  -96.550; -599.000; -547.000
245.956;  -38.650; -324.000; -275.000
246.098;  -73.600; -508.000; -650.000
246.241;    4.225;  194.000;   48.000
246.383;  -29.450; -119.000;  -73.000
246.526;  -67.675; -454.000; -525.000
246.669; -116.625; -889.000; -780.000
246.811;   12.700;  172.000;   -1.000
246.954;  -65.975; -512.000; -426.000
247.096;  -15.275;  -84.000;   -6.000
247.239;  -73.100; -482.000; -445.000
247.381;  -65.225; -647.000; -488.000
247.524;   91.450;  645.000;  679.000
247.666;   -5.075;   58.000;   11.000
247.809; -110.800; -887.000; -691.000
247.951;    7.675;  -75.000;  138.000
248.094;   21.025;  432.000;  308.000
248.236; -138.175;-1262.000;-1238.000
248.378;  -18.575; -356.000;  -81.000
248.521;  -25.125; -334.000; -337.000
248.663;  -43.650; -236.000; -267.000
248.806;  -26.925; -300.000; -266.000
248.948; -111.025; -886.000; -763.000
249.090;  -49.725; -428.000; -398.000
249.233;  -72.225; -344.000; -381.000
249.375;  -50.900; -474.000; -451.000
249.518;  -33.000;  -83.000; -133.000
249.660;  -20.800; -103.000;    3.000
249.802; -155.450;-1303.000;-1189.000
249.945;  -72.575; -612.000; -540.000
250.087; -112.100; -834.000; -768.000
250.229;  -61.425; -362.000; -480.000
250.371;  -74.350; -494.000; -439.000
250.514;  -42.625; -310.000; -244.000
250.656;  -48.725;   69.000;  102.000
250.798; -108.950; -849.000; -800.000
250.940;  -49.125; -322.000; -322.000
251.083;  -20.950; -335.000; -111.000
251.225;   53.650;  338.000;  310.000
251.367;  -32.650; -274.000; -373.000
251.509;  -47.500; -265.000; -210.000
251.651;  -90.525; -731.000; -671.000
251.794;   51.625;  538.000;  632.000
251.936; -105.975; -821.000; -747.000
252.078;  -83.550; -540.000; -461.000
252.220;  -71.450; -645.000; -477.000
252.362;   58.000;  344.000;  462.000
252.504;  -64.200; -677.000; -584.000
252.646; -108.125; -875.000; -722.000
252.788;   -4.800;   14.000; -128.000
252.931;  -54.050; -257.000; -253.000
253.073;  -36.800; -376.000; -317.000
253.215;    3.800;  141.000;  122.000
253.357;  -10.250;   82.000; -153.000
253.499;  -46.375; -374.000; -234.000
253.641;  -79.700; -749.000; -594.000
253.783;  -92.200; -609.000; -527.000
253.925;  -83.025; -586.000; -591.000
254.067; -110.350; -744.000; -667.000
254.209;  -42.250; -391.000; -259.000
254.351; -140.950; -865.000; -883.000
254.493;  -62.350; -441.000; -417.000
254.635; -122.850; -936.000; -818.000
254.777;  -76.200; -752.000; -687.000
254.918;  -67.875; -512.000; -430.000
255.060;  -53.550; -551.000; -395.000
255.202;  -42.075; -473.000; -261.000
255.344;  -78.200; -658.000; -455.000
255.486;  -76.275; -471.000; -406.000
255.628; -106.025; -780.000; -781.000
255.770; -101.025; -676.000; -536.000
255.912;  -55.325; -559.000; -468.000
256.053;  -91.800; -730.000; -508.000
256.195;  148.900; 1008.000;  903.000
256.337;  -94.950; -861.000; -595.000
256.479;   75.425;  532.000;  416.000
256.621;  -42.275; -394.000; -212.000
256.762;  -83.775; -789.000; -742.000
256.904;   36.350;  485.000;  487.000
257.046;  -36.225; -381.000; -271.000
257.188;  -38.250; -351.000; -264.000
257.329;  -63.025; -525.000; -464.000
257.471; -114.725; -939.000; -807.000
257.613;  -49.925; -584.000; -498.000
257.755; -150.150;-1073.000; -982.000
257.896;   35.625;  286.000;  392.000
258.038;  -68.925; -403.000; -352.000
258.180;  -35.775; -354.000; -279.000
258.321;  -82.325; -581.000; -457.000
258.463;   -7.300;  -71.000;  133.000
258.605;  -99.225; -562.000; -570.000
258.746; -102.925; -886.000; -772.000
258.888; -142.275;-1026.000;-1020.000
259.029;   34.625;  121.000;   -8.000
259.171;  -74.475; -614.000; -550.000
259.313;   17.650;  -49.000;  -47.000
259.454;  -73.325; -536.000; -414.000
259.596;  -48.150; -483.000; -390.000
259.737;  -80.725; -590.000; -474.000
259.879;   48.450;  217.000;  311.000
260.020;   65.575;  901.000;  636.000
260.162;  -38.425; -146.000; -253.000
260.303; -119.325; -768.000; -687.000
260.445;  -76.800; -609.000; -613.000
260.586;   24.050;  392.000;  157.000
260.728;  -43.600; -360.000; -248.000
260.869;  -67.575; -350.000; -343.000
261.011;   76.075;  706.000;  537.000
261.152;  -58.300; -479.000; -319.000
261.293;  -68.250; -576.000; -595.000
261.435;  -34.200; -219.000; -184.000
261.576;  -46.850; -455.000; -325.000
261.718;   45.900;  420.000;  470.000
261.859; -106.925; -940.000; -949.000
262.000; -127.825; -951.000;-1016.000
262.142;  -23.225;  -52.000;  -60.000
262.283; -111.500; -808.000; -691.000
262.424;  -84.000; -666.000; -625.000
262.566; -137.900;-1161.000; -983.000
262.707; -113.900; -840.000; -830.000
262.848; -119.125; -769.000; -726.000
262.990;  -43.400; -362.000; -345.000
263.131;   81.575;  650.000;  681.000
263.272;  -10.525;  -61.000;  -41.000
263.413;  -93.925; -589.000; -561.000
263.555;  -68.100; -669.000; -143.000
263.696;  -80.875; -550.000; -641.000
263.837;  -59.800; -449.000; -551.000
263.978;    3.025;   -5.000;  -77.000
264.119;  -34.800; -283.000; -264.000
264.261; -112.200; -847.000; -630.000
264.402;   -8.950;   33.000;   40.000
264.543;  -78.725; -509.000; -524.000
264.684;   -8.225;   61.000;  -50.000
264.825;  -75.000; -816.000; -538.000
264.966;    2.750;  -84.000;  -67.000
265.107;  -99.425; -646.000; -670.000
265.248; -102.600; -825.000; -812.000
265.390;  -15.325;  152.000;   -9.000
265.531;  -17.400; -238.000; -107.000
265.672;  -83.375; -557.000; -630.000
265.813;   66.975;  563.000;  439.000
265.954; -140.275; -959.000; -940.000
266.095;  -19.775; -372.000; -322.000
266.236; -104.575; -686.000; -548.000
266.377;  -29.425; -243.000; -297.000
266.518;  -68.825; -619.000; -547.000
266.659;   27.600;  170.000;  268.000
266.800;  -16.400;   83.000;   85.000
266.941;  -72.400; -487.000; -478.000
267.082;    9.525;  354.000;   99.000
267.223;  -46.800; -344.000; -273.000
267.364; -110.250; -892.000; -686.000
267.504;   -2.300;    3.000;  135.000
267.645;    8.725;  160.000;   67.000
267.786;  -31.550; -147.000;  -86.000
267.927;  -75.950; -473.000; -379.000
268.068;  -11.100; -186.000;  -61.000
268.209;  -46.750; -175.000; -413.000
268.350;  -58.475; -388.000; -532.000
268.490;  -77.975; -648.000; -521.000
268.631;   41.500;  127.000;  225.000
268.772;  -98.875; -874.000; -647.000
268.913;  -55.975; -328.000; -476.000
269.054;  -29.125; -117.000;   12.000
269.194;  -40.475; -418.000; -402.000
269.335; -155.950;-1137.000;-1074.000
269.476;  -12.775;   33.000;  -35.000
269.617;  -47.100; -347.000; -392.000
269.757;  -97.550; -713.000; -646.000
269.898; -111.975; -856.000; -613.000
270.039;  -56.450; -415.000; -405.000
270.180; -135.725; -952.000; -816.000
270.320;  -28.025; -190.000; -250.000
