
Integration time [ms]: 200.000
Averaging Nr. [scans]: 10
Smoothing Nr. [pixels]: 0
Data measured with spectrometer [name]: 2101012U2
Wave   ;Sample   ;Dark     ;Reference
[nm]   ;[counts] ;[counts] ;[counts] 

197.733;  119.600;  516.000;  404.000
197.879; -146.200; -610.000; -634.000
198.025;  -90.400; -475.000; -420.000
198.171; -145.000; -602.000; -612.000
198.317;  -59.800; -401.000; -316.000
198.463; -104.400; -655.000; -404.000
198.609;   42.400;  181.000; -137.000
198.755; -165.200; -644.000; -410.000
198.901; -124.000; -505.000; -424.000
199.047; -128.100; -615.000; -488.000
199.193;  -78.600; -230.000; -468.000
199.339;  -93.900; -222.000; -369.000
199.485;   90.300;  330.000;  271.000
199.631;   45.000;  227.000;  310.000
199.777;  -97.200; -466.000; -398.000
199.923; -113.700; -610.000; -424.000
200.069;   -7.600; -141.000;  -58.000
200.215;  105.900;  128.000;  453.000
200.361;   97.200;  243.000;  477.000
200.507; -124.900; -600.000; -373.000
200.653;  -45.500; -371.000; -194.000
200.798;  -81.100; -215.000; -125.000
200.944;   -5.100; -146.000;  -41.000
201.090;   54.700;   61.000;  222.000
201.236;   -8.700; -116.000; -158.000
201.382;  278.600;  874.000;  903.000
201.528;   26.700;  -58.000;  -48.000
201.674;  -90.400; -386.000; -293.000
201.819; -130.100; -540.000; -439.000
201.965; -150.000; -699.000; -447.000
202.111;  -63.900; -273.000; -226.000
202.257;  -62.300; -250.000; -238.000
202.402;   23.100;   13.000;  -36.000
202.548;  -63.300; -169.000; -116.000
202.694;  164.300;  410.000; -183.000
202.840; -134.000; -603.000; -531.000
202.985; -138.000; -681.000; -639.000
203.131; -197.400; -832.000; -666.000
203.277;  -46.900; -199.000; -262.000
203.423;  -70.900; -434.000; -520.000
203.568;  -80.200; -462.000; -237.000
203.714; -109.700; -535.000; -542.000
203.860; -197.100; -682.000; -641.000
204.005;   46.100;  112.000;  167.000
204.151;  179.700;  561.000;  556.000
204.296;  -59.800; -354.000; -221.000
204.442; -137.300; -600.000; -547.000
204.588; -155.100; -592.000; -579.000
204.733;   43.300;  178.000;  168.000
204.879; -287.100;-1018.000; -822.000
205.025;   34.000;  -99.000;  126.000
205.170;   22.500;  -17.000;   94.000
205.316;  187.000;  438.000;  661.000
205.461; -152.200; -698.000; -554.000
205.607;  173.800;  609.000;  665.000
205.752; -152.600; -626.000; -551.000
205.898;  -85.700; -501.000; -391.000
206.043; -112.700; -578.000; -506.000
206.189; -108.000; -243.000; -285.000
206.334;  168.500;  554.000;  606.000
206.480;  192.200;  409.000;  239.000
206.625; -141.700; -529.000; -552.000
206.771;  -82.900; -451.000; -373.000
206.916;  -58.000; -210.000; -537.000
207.062; -138.300; -545.000; -591.000
207.207; -129.900; -546.000; -443.000
207.353;  130.500;  185.000;  460.000
207.498;   17.500;  196.000;   85.000
207.643;  -88.700; -501.000; -370.000
207.789; -271.400;-1069.000; -910.000
207.934; -189.800; -665.000; -713.000
208.080;  -26.800; -154.000;   66.000
208.225;  -21.400;  -22.000;  -57.000
208.370; -161.800; -727.000; -619.000
208.516; -110.000; -741.000; -487.000
208.661;  -53.200; -127.000;  -69.000
208.806;  -27.000; -165.000; -171.000
208.952; -234.400;-1044.000; -731.000
209.097;  151.000;  378.000;  349.000
209.242; -110.100; -307.000; -382.000
209.387;  107.300;  392.000;  350.000
209.533;  -91.000; -321.000; -350.000
209.678;  177.000;  472.000;  543.000
209.823;  -89.700; -408.000; -310.000
209.969; -202.100; -860.000; -757.000
210.114; -204.000; -907.000; -719.000
210.259; -261.300; -939.000; -889.000
210.404;    3.200; -171.000;  103.000
210.549;   21.600;  108.000;    3.000
210.695;   -7.000;   -3.000;  -95.000
210.840;   95.300;   94.000;   67.000
210.985; -103.900; -484.000; -303.000
211.130;  132.200;  268.000;  406.000
211.275;   89.100;  207.000;  199.000
211.420; -107.100; -300.000; -289.000
211.566; -128.000; -536.000; -489.000
211.711;   64.300;  218.000;  157.000
211.856; -112.600; -545.000; -519.000
212.001;   38.500;  151.000;   44.000
212.146;   46.400;  153.000;   49.000
212.291;  -42.300; -210.000; -186.000
212.436;  -13.100; -280.000;   -6.000
212.581; -160.400; -685.000; -653.000
212.726; -117.800; -487.000; -538.000
212.871;  -58.400; -552.000; -217.000
213.016; -307.400;-1172.000;-1029.000
213.161;  145.200;  406.000;  291.000
213.306; -123.400; -435.000; -577.000
213.451; -173.900; -778.000; -689.000
213.596;  -66.900; -455.000; -347.000
213.741; -130.300; -448.000; -538.000
213.886; -149.300; -498.000; -517.000
214.031;  -28.800; -294.000; -124.000
214.176;  -81.100; -408.000; -341.000
214.321;  -36.700; -296.000; -157.000
214.466;  -39.600; -163.000;  -43.000
214.611;   10.500;  -61.000;  -10.000
214.756; -219.400; -948.000; -858.000
214.901;  -60.100; -388.000; -226.000
215.046; -245.100; -797.000; -825.000
215.191;   51.000;  128.000;   35.000
215.336;    8.900; -157.000;  -19.000
215.480; -148.800; -684.000; -505.000
215.625;  -28.000; -175.000;  -19.000
215.770; -187.300; -757.000; -662.000
215.915;   -5.100;   -5.000;  -97.000
216.060;  -12.800; -113.000;  -21.000
216.205; -214.400; -731.000; -779.000
216.349; -117.900; -470.000; -533.000
216.494; -255.000; -939.000; -867.000
216.639; -239.200; -823.000; -888.000
216.784; -187.500; -577.000; -525.000
216.929;  122.800;  392.000;  281.000
217.073;   -4.200; -244.000;  -31.000
217.218;   18.200;   78.000;  -47.000
217.363; -139.000; -656.000; -618.000
217.507; -159.500; -623.000; -588.000
217.652; -219.800; -845.000; -874.000
217.797; -170.900; -708.000; -659.000
217.942; -204.700; -856.000; -720.000
218.086;  156.400;  608.000;  539.000
218.231;  -17.000; -174.000;  -26.000
218.376;  -53.500; -337.000; -229.000
218.520;   19.000;  -41.000;   96.000
218.665;  -39.000; -338.000; -204.000
218.810;  -60.000; -275.000; -233.000
218.954;   41.700;  201.000;   35.000
219.099; -206.300; -713.000; -963.000
219.243; -123.500; -589.000; -554.000
219.388;  -52.700; -264.000; -136.000
219.532;  -10.500; -116.000; -116.000
219.677; -174.000; -564.000; -521.000
219.822;   30.900;   33.000;   89.000
219.966;   13.400;   17.000;  -99.000
220.111;  -44.100; -328.000;  -40.000
220.255; -167.000; -797.000; -750.000
220.400;  -24.000; -180.000; -146.000
220.544; -106.600; -516.000; -450.000
220.689; -103.200; -422.000; -451.000
220.833;  -19.400; -123.000;  -58.000
220.978;  -57.600; -393.000; -563.000
221.122;   55.200;  319.000;  307.000
221.267; -205.100; -906.000; -837.000
221.411; -109.500; -478.000; -394.000
221.555;   -6.500; -104.000;  -23.000
221.700;  -66.800; -329.000; -222.000
221.844;   58.100;  255.000;  272.000
221.989;  -89.900; -328.000; -311.000
222.133;  -36.800; -289.000; -307.000
222.277;  -16.300;    5.000;   78.000
222.422;   27.000;  227.000;  113.000
222.566;  -53.400; -381.000; -214.000
222.711; -117.100; -414.000; -479.000
222.855; -146.900; -643.000; -586.000
222.999; -147.900; -642.000; -717.000
223.144;  -64.700; -195.000; -194.000
223.288;  133.600;  423.000;  251.000
223.432;   24.700;  184.000;  230.000
223.576;   78.700;  152.000;  -21.000
223.721;  115.500;  364.000;  273.000
223.865;  -84.500; -472.000; -475.000
224.009;  464.800; 1673.000; 1631.000
224.153; -169.700; -660.000; -671.000
224.298; -133.600; -531.000; -489.000
224.442;  -23.800;  -74.000;  -33.000
224.586;  -14.300; -169.000; -106.000
224.730; -190.400; -858.000; -670.000
224.875; -200.900; -739.000; -688.000
225.019;   36.500;  102.000;  188.000
225.163;  131.600;  208.000;  341.000
225.307;   55.500;   97.000;  -91.000
225.451;   75.800;  360.000;  481.000
225.595;   87.400;  264.000;  176.000
225.739;   17.400; -170.000;  -94.000
225.884;   36.700;   86.000;    5.000
226.028; -185.100; -760.000; -626.000
226.172;  -43.200; -260.000; -273.000
226.316; -209.800; -941.000; -902.000
226.460; -160.600; -645.000; -493.000
226.604; -111.400; -406.000; -400.000
226.748; -202.300; -836.000; -733.000
226.892;  -75.500; -227.000; -181.000
227.036;  -81.100; -537.000; -447.000
227.180;  -97.300; -551.000; -375.000
227.324; -126.900; -561.000; -580.000
227.468; -210.900; -819.000; -717.000
227.612;   10.300;  242.000;  -28.000
227.756; -190.800; -845.000; -698.000
227.900;  135.700;  342.000;  441.000
228.044; -104.100; -509.000; -290.000
228.188;  157.300;  448.000;  568.000
228.332; -146.000; -546.000; -472.000
228.476;  -60.100; -223.000; -149.000
228.620;  -30.100; -210.000; -150.000
228.764;  168.300;  431.000;  349.000
228.908;  -23.100; -155.000;   30.000
229.052;  -92.600; -615.000; -528.000
229.195;    9.900; -172.000;   13.000
229.339;  -25.700; -235.000; -305.000
229.483;  -36.700;    5.000; -162.000
229.627;   14.800; -156.000;  139.000
229.771; -107.200; -218.000; -294.000
229.915;   31.000;  230.000;   79.000
230.059; -187.900; -648.000; -663.000
230.202;  -82.400; -370.000; -317.000
230.346;  -28.800; -107.000;  107.000
230.490; -117.100; -489.000; -521.000
230.634; -208.400; -736.000; -553.000
230.777;  142.300;  478.000;  509.000
230.921; -110.900; -450.000; -359.000
231.065;  -84.700; -246.000; -286.000
231.209;   81.600;  261.000;  265.000
231.352;   45.600;   54.000;   40.000
231.496;   81.900;  568.000;  188.000
231.640; -148.500; -693.000; -621.000
231.783;  150.200;  546.000;  525.000
231.927;  -55.600; -294.000; -365.000
232.071; -214.200; -962.000; -736.000
232.214; -208.000; -980.000; -764.000
232.358; -180.600; -683.000; -599.000
232.502;   42.300;  -19.000;    7.000
232.645; -256.500;-1090.000; -927.000
232.789;  -14.600; -257.000; -218.000
232.933;  -43.300; -407.000; -224.000
233.076; -237.400;-1038.000; -897.000
233.220; -202.700; -752.000; -777.000
233.363; -149.500; -669.000; -477.000
233.507;  119.200;  371.000;  129.000
233.650; -175.900; -764.000; -834.000
233.794;  141.600;  438.000;  461.000
233.938;  -89.400; -530.000; -362.000
234.081;  -21.000;  -93.000;   31.000
234.225; -134.800; -631.000; -539.000
234.368; -195.300; -773.000; -723.000
234.512;  -32.400; -385.000; -299.000
234.655; -168.000; -582.000; -555.000
234.798;  -91.600; -493.000; -466.000
234.942; -251.600; -884.000;-1002.000
235.085; -133.400; -651.000; -443.000
235.229; -134.300; -405.000; -410.000
235.372;  -88.500; -247.000; -191.000
235.516; -109.800; -397.000; -321.000
235.659;   59.400;   92.000;  121.000
235.802;    4.900;  -38.000;  -22.000
235.946;   91.100;  335.000;  215.000
236.089;  122.600;  126.000;  250.000
236.233;  107.800;  275.000;  298.000
236.376;  -59.100; -235.000; -378.000
236.519;  -51.300; -297.000; -319.000
236.663;  -40.400; -215.000; -117.000
236.806; -296.500;-1029.000; -999.000
236.949;  141.900;  543.000;  431.000
237.092;  156.500;  412.000;  391.000
237.236; -168.700; -589.000; -502.000
237.379;  147.100;  352.000;  428.000
237.522; -234.300; -879.000; -768.000
237.666;  -34.500; -271.000;   18.000
237.809; -225.400; -851.000; -823.000
237.952;  112.000;  469.000;  271.000
238.095; -105.800; -447.000; -442.000
238.238;  172.100;  688.000;  700.000
238.382;   11.500;  166.000;  103.000
238.525; -129.000; -598.000; -511.000
238.668; -283.000;-1060.000; -985.000
238.811; -144.600; -638.000; -643.000
238.954;  -90.600; -483.000; -334.000
239.097;  188.200;  617.000;  664.000
239.241;   77.800;  394.000;  326.000
239.384;  -52.000; -254.000; -214.000
239.527;  -78.800; -424.000; -224.000
239.670; -300.600; -994.000;-1091.000
239.813; -195.800; -696.000; -658.000
239.956;  175.700;  579.000;  473.000
240.099; -213.200; -778.000; -725.000
240.242;  122.200;  428.000;  432.000
240.385;  107.800;  466.000;  450.000
240.528; -129.500; -706.000; -473.000
240.671;   60.800;  189.000;  134.000
240.814;  -67.700; -441.000; -158.000
240.957; -180.300; -767.000; -578.000
241.100; -193.400; -779.000; -755.000
241.243; -276.900;-1234.000; -893.000
241.386; -148.600; -508.000; -379.000
241.529; -153.700; -735.000; -547.000
241.672; -114.100; -566.000; -495.000
241.815; -241.300; -832.000; -808.000
241.958;  -39.400; -125.000; -182.000
242.101; -119.000; -545.000; -390.000
242.244;  -82.500; -270.000; -325.000
242.387;  -50.200; -304.000; -246.000
242.530;  127.900;  470.000;  134.000
242.673;  -55.200; -381.000; -309.000
242.815; -209.300; -925.000; -899.000
242.958; -145.800; -482.000; -381.000
243.101;   10.600;  132.000;  187.000
243.244; -136.800; -564.000; -521.000
243.387;  -66.500; -313.000; -316.000
243.530; -180.100; -657.000; -674.000
243.672;   28.400;   43.000;  -92.000
243.815;  -88.600; -355.000; -283.000
243.958;   -3.800;   98.000;  -26.000
244.101;   27.800;   59.000;  -16.000
244.243;  -23.500;  -47.000;  101.000
244.386; -188.400; -761.000; -630.000
244.529;    3.800; -132.000; -139.000
244.672; -310.300;-1154.000; -951.000
244.814; -203.900; -621.000; -794.000
244.957; -119.700; -380.000; -304.000
245.100; -141.000; -489.000; -489.000
245.242; -116.700; -387.000; -374.000
245.385;   12.500;  -59.000;  -39.000
245.528; -218.200; -871.000; -705.000
245.670;  219.400;  612.000;  634.000
245.813; -153.100; -599.000; -547.000
245.956;  -29.400; -324.000; -275.000
246.098; -133.500; -508.000; -650.000
246.241;   34.700;  194.000;   48.000
246.383;  -14.900; -119.000;  -73.000
246.526; -126.000; -454.000; -525.000
246.669; -214.900; -889.000; -780.000
246.811;   82.500;  172.000;   -1.000
246.954; -115.500; -512.000; -426.000
247.096;  -36.200;  -84.000;   -6.000
247.239; -131.200; -482.000; -445.000
247.381; -160.200; -647.000; -488.000
247.524;  203.800;  645.000;  679.000
247.666;   10.900;   58.000;   11.000
247.809; -203.600; -887.000; -691.000
247.951;    1.400;  -75.000;  138.000
248.094;   92.700;  432.000;  308.000
248.236; -313.600;-1262.000;-1238.000
248.378;  -54.800; -356.000;  -81.000
248.521;  -50.500; -334.000; -337.000
248.663;  -93.600; -236.000; -267.000
248.806;  -62.200; -300.000; -266.000
248.948; -207.400; -886.000; -763.000
249.090; -118.100; -428.000; -398.000
249.233;  -91.500; -344.000; -381.000
249.375; -130.700; -474.000; -451.000
249.518;  -23.500;  -83.000; -133.000
249.660;   27.800; -103.000;    3.000
249.802; -364.600;-1303.000;-1189.000
249.945; -134.900; -612.000; -540.000
250.087; -220.500; -834.000; -768.000
250.229; -108.000; -362.000; -480.000
250.371; -119.300; -494.000; -439.000
250.514;  -90.800; -310.000; -244.000
250.656;  -12.600;   69.000;  102.000
250.798; -224.800; -849.000; -800.000
250.940;  -86.400; -322.000; -322.000
251.083;  -39.300; -335.000; -111.000
251.225;  140.400;  338.000;  310.000
251.367;  -93.300; -274.000; -373.000
251.509;  -75.000; -265.000; -210.000
251.651; -182.900; -731.000; -671.000
251.794;  140.400;  538.000;  632.000
251.936; -213.700; -821.000; -747.000
252.078; -164.900; -540.000; -461.000
252.220; -122.000; -645.000; -477.000
252.362;  123.500;  344.000;  462.000
252.504; -135.600; -677.000; -584.000
252.646; -237.200; -875.000; -722.000
252.788;    1.400;   14.000; -128.000
252.931;  -73.700; -257.000; -253.000
253.073;  -91.500; -376.000; -317.000
253.215;    7.500;  141.000;  122.000
253.357;  -14.900;   82.000; -153.000
253.499;  -79.800; -374.000; -234.000
253.641; -180.800; -749.000; -594.000
253.783; -148.400; -609.000; -527.000
253.925; -147.600; -586.000; -591.000
254.067; -227.000; -744.000; -667.000
254.209;  -42.400; -391.000; -259.000
254.351; -260.600; -865.000; -883.000
254.493; -102.800; -441.000; -417.000
254.635; -201.500; -936.000; -818.000
254.777; -183.800; -752.000; -687.000
254.918; -163.500; -512.000; -430.000
255.060; -120.600; -551.000; -395.000
255.202; -128.000; -473.000; -261.000
255.344; -143.500; -658.000; -455.000
255.486; -123.200; -471.000; -406.000
255.628; -216.000; -780.000; -781.000
255.770; -181.400; -676.000; -536.000
255.912; -126.200; -559.000; -468.000
256.053; -136.500; -730.000; -508.000
256.195;  366.800; 1008.000;  903.000
256.337; -190.100; -861.000; -595.000
256.479;  160.700;  532.000;  416.000
256.621;  -52.700; -394.000; -212.000
256.762; -201.800; -789.000; -742.000
256.904;  158.300;  485.000;  487.000
257.046;  -69.700; -381.000; -271.000
257.188;  -68.200; -351.000; -264.000
257.329; -121.700; -525.000; -464.000
257.471; -201.600; -939.000; -807.000
257.613; -115.900; -584.000; -498.000
257.755; -280.900;-1073.000; -982.000
257.896;   71.500;  286.000;  392.000
258.038;  -82.300; -403.000; -352.000
258.180;  -86.800; -354.000; -279.000
258.321; -144.400; -581.000; -457.000
258.463;   13.100;  -71.000;  133.000
258.605; -137.800; -562.000; -570.000
258.746; -213.700; -886.000; -772.000
258.888; -267.100;-1026.000;-1020.000
259.029;   75.500;  121.000;   -8.000
259.171; -155.100; -614.000; -550.000
259.313;   -1.100;  -49.000;  -47.000
259.454; -128.500; -536.000; -414.000
259.596; -107.500; -483.000; -390.000
259.737; -110.500; -590.000; -474.000
259.879;  110.600;  217.000;  311.000
260.020;  217.200;  901.000;  636.000
260.162;  -55.900; -146.000; -253.000
260.303; -236.600; -768.000; -687.000
260.445; -189.900; -609.000; -613.000
260.586;   97.900;  392.000;  157.000
260.728;  -84.200; -360.000; -248.000
260.869; -105.400; -350.000; -343.000
261.011;  197.800;  706.000;  537.000
261.152;  -93.800; -479.000; -319.000
261.293; -130.000; -576.000; -595.000
261.435;  -50.100; -219.000; -184.000
261.576; -108.300; -455.000; -325.000
261.718;  141.600;  420.000;  470.000
261.859; -237.600; -940.000; -949.000
262.000; -236.400; -951.000;-1016.000
262.142;  -20.400;  -52.000;  -60.000
262.283; -204.600; -808.000; -691.000
262.424; -156.100; -666.000; -625.000
262.566; -275.000;-1161.000; -983.000
262.707; -230.300; -840.000; -830.000
262.848; -207.200; -769.000; -726.000
262.990;  -93.000; -362.000; -345.000
263.131;  199.700;  650.000;  681.000
263.272;    7.900;  -61.000;  -41.000
263.413; -170.000; -589.000; -561.000
263.555; -107.400; -669.000; -143.000
263.696; -169.000; -550.000; -641.000
263.837;  -97.500; -449.000; -551.000
263.978;    0.100;   -5.000;  -77.000
264.119;  -70.200; -283.000; -264.000
264.261; -204.600; -847.000; -630.000
264.402;    3.700;   33.000;   40.000
264.543; -114.700; -509.000; -524.000
264.684;   15.000;   61.000;  -50.000
264.825; -101.400; -816.000; -538.000
264.966;    0.200;  -84.000;  -67.000
265.107; -211.700; -646.000; -670.000
265.248; -213.300; -825.000; -812.000
265.390;   40.400;  152.000;   -9.000
265.531;  -13.200; -238.000; -107.000
265.672; -160.800; -557.000; -630.000
265.813;  169.600;  563.000;  439.000
265.954; -267.500; -959.000; -940.000
266.095;   10.100; -372.000; -322.000
266.236; -194.200; -686.000; -548.000
266.377;  -42.600; -243.000; -297.000
266.518; -129.800; -619.000; -547.000
266.659;   66.200;  170.000;  268.000
266.800;   25.300;   83.000;   85.000
266.941; -146.400; -487.000; -478.000
267.082;   60.300;  354.000;   99.000
267.223;  -65.100; -344.000; -273.000
267.364; -219.900; -892.000; -686.000
267.504;    4.100;    3.000;  135.000
267.645;   34.300;  160.000;   67.000
267.786;  -30.300; -147.000;  -86.000
267.927; -124.100; -473.000; -379.000
268.068;  -16.200; -186.000;  -61.000
268.209; -106.300; -175.000; -413.000
268.350;  -96.400; -388.000; -532.000
268.490; -146.200; -648.000; -521.000
268.631;  103.000;  127.000;  225.000
268.772; -198.900; -874.000; -647.000
268.913; -105.900; -328.000; -476.000
269.054;  -30.100; -117.000;   12.000
269.194;  -51.600; -418.000; -402.000
269.335; -276.600;-1137.000;-1074.000
269.476;    9.600;   33.000;  -35.000
269.617;  -98.300; -347.000; -392.000
269.757; -174.700; -713.000; -646.000
269.898; -221.900; -856.000; -613.000
270.039; -129.900; -415.000; -405.000
270.180; -228.700; -952.000; -816.000
270.320;  -45.100; -190.000; -250.000
