
Integration time [ms]: 100.000
Averaging Nr. [scans]: 40
Smoothing Nr. [pixels]: 0
Data measured with spectrometer [name]: 2101012U2
Wave   ;Sample   ;Dark     ;Reference
[nm]   ;[counts] ;[counts] ;[counts] 

197.733;   74.200;  516.000;  404.000
197.879;  -83.525; -610.000; -634.000
198.025;  -39.825; -475.000; -420.000
198.171;  -79.150; -602.000; -612.000
198.317;  -42.425; -401.000; -316.000
198.463;  -52.275; -655.000; -404.000
198.609;   36.700;  181.000; -137.000
198.755;  -73.100; -644.000; -410.000
198.901;  -79.600; -505.000; -424.000
199.047;  -61.425; -615.000; -488.000
199.193;  -33.825; -230.000; -468.000
199.339;  -57.350; -222.000; -369.000
199.485;   50.200;  330.000;  271.000
199.631;   11.200;  227.000;  310.000
199.777;  -45.325; -466.000; -398.000
199.923;  -67.950; -610.000; -424.000
200.069;    8.050; -141.000;  -58.000
200.215;   67.200;  128.000;  453.000
200.361;   56.625;  243.000;  477.000
200.507;  -80.875; -600.000; -373.000
200.653;   -1.575; -371.000; -194.000
200.798;  -38.150; -215.000; -125.000
200.944;    2.725; -146.000;  -41.000
201.090;   31.700;   61.000;  222.000
201.236;   10.350; -116.000; -158.000
201.382;  115.300;  874.000;  903.000
201.528;   18.275;  -58.000;  -48.000
201.674;  -41.600; -386.000; -293.000
201.819;  -56.775; -540.000; -439.000
201.965;  -80.425; -699.000; -447.000
202.111;  -14.550; -273.000; -226.000
202.257;  -42.575; -250.000; -238.000
202.402;   18.050;   13.000;  -36.000
202.548;  -26.550; -169.000; -116.000
202.694;   92.450;  410.000; -183.000
202.840;  -62.775; -603.000; -531.000
202.985;  -60.300; -681.000; -639.000
203.131;  -96.600; -832.000; -666.000
203.277;  -13.225; -199.000; -262.000
203.423;  -50.825; -434.000; -520.000
203.568;  -28.600; -462.000; -237.000
203.714;  -61.625; -535.000; -542.000
203.860;  -76.650; -682.000; -641.000
204.005;    0.775;  112.000;  167.000
204.151;   85.025;  561.000;  556.000
204.296;  -43.825; -354.000; -221.000
204.442;  -72.775; -600.000; -547.000
204.588;  -68.675; -592.000; -579.000
204.733;   39.100;  178.000;  168.000
204.879; -127.900;-1018.000; -822.000
205.025;   27.550;  -99.000;  126.000
205.170;    3.150;  -17.000;   94.000
205.316;   80.775;  438.000;  661.000
205.461;  -91.000; -698.000; -554.000
205.607;   86.400;  609.000;  665.000
205.752;  -81.300; -626.000; -551.000
205.898;  -48.100; -501.000; -391.000
206.043;  -73.425; -578.000; -506.000
206.189;  -42.075; -243.000; -285.000
206.334;   72.150;  554.000;  606.000
206.480;   89.175;  409.000;  239.000
206.625;  -92.525; -529.000; -552.000
206.771;  -42.725; -451.000; -373.000
206.916;  -39.100; -210.000; -537.000
207.062;  -50.550; -545.000; -591.000
207.207;  -56.925; -546.000; -443.000
207.353;   53.625;  185.000;  460.000
207.498;    5.175;  196.000;   85.000
207.643;  -39.725; -501.000; -370.000
207.789; -123.150;-1069.000; -910.000
207.934;  -76.500; -665.000; -713.000
208.080;  -21.575; -154.000;   66.000
208.225;    0.350;  -22.000;  -57.000
208.370;  -77.100; -727.000; -619.000
208.516;  -64.950; -741.000; -487.000
208.661;  -28.300; -127.000;  -69.000
208.806;  -18.275; -165.000; -171.000
208.952; -118.275;-1044.000; -731.000
209.097;   79.875;  378.000;  349.000
209.242;  -38.225; -307.000; -382.000
209.387;   69.950;  392.000;  350.000
209.533;  -54.550; -321.000; -350.000
209.678;   70.025;  472.000;  543.000
209.823;  -60.850; -408.000; -310.000
209.969;  -98.650; -860.000; -757.000
210.114; -109.575; -907.000; -719.000
210.259; -107.100; -939.000; -889.000
210.404;  -11.450; -171.000;  103.000
210.549;   20.300;  108.000;    3.000
210.695;   -2.125;   -3.000;  -95.000
210.840;   23.625;   94.000;   67.000
210.985;  -57.825; -484.000; -303.000
211.130;   81.400;  268.000;  406.000
211.275;    7.000;  207.000;  199.000
211.420;  -40.825; -300.000; -289.000
211.566;  -87.800; -536.000; -489.000
211.711;   29.100;  218.000;  157.000
211.856;  -62.800; -545.000; -519.000
212.001;   19.250;  151.000;   44.000
212.146;   25.825;  153.000;   49.000
212.291;  -11.300; -210.000; -186.000
212.436;  -32.350; -280.000;   -6.000
212.581;  -78.350; -685.000; -653.000
212.726;  -73.675; -487.000; -538.000
212.871;  -41.875; -552.000; -217.000
213.016; -136.500;-1172.000;-1029.000
213.161;   69.175;  406.000;  291.000
213.306;  -84.450; -435.000; -577.000
213.451;  -94.825; -778.000; -689.000
213.596;  -59.050; -455.000; -347.000
213.741;  -46.450; -448.000; -538.000
213.886;  -78.625; -498.000; -517.000
214.031;  -14.550; -294.000; -124.000
214.176;  -42.675; -408.000; -341.000
214.321;  -16.250; -296.000; -157.000
214.466;  -33.475; -163.000;  -43.000
214.611;   10.725;  -61.000;  -10.000
214.756; -113.550; -948.000; -858.000
214.901;  -18.325; -388.000; -226.000
215.046; -114.175; -797.000; -825.000
215.191;   22.975;  128.000;   35.000
215.336;  -14.275; -157.000;  -19.000
215.480;  -68.225; -684.000; -505.000
215.625;    0.350; -175.000;  -19.000
215.770;  -76.250; -757.000; -662.000
215.915;  -17.725;   -5.000;  -97.000
216.060;   -1.250; -113.000;  -21.000
216.205;  -94.300; -731.000; -779.000
216.349;  -65.375; -470.000; -533.000
216.494; -141.875; -939.000; -867.000
216.639; -114.250; -823.000; -888.000
216.784;  -88.475; -577.000; -525.000
216.929;   66.475;  392.000;  281.000
217.073;  -11.650; -244.000;  -31.000
217.218;    8.275;   78.000;  -47.000
217.363;  -89.725; -656.000; -618.000
217.507;  -76.050; -623.000; -588.000
217.652; -130.675; -845.000; -874.000
217.797;  -74.125; -708.000; -659.000
217.942;  -98.800; -856.000; -720.000
218.086;   84.475;  608.000;  539.000
218.231;  -17.350; -174.000;  -26.000
218.376;  -28.650; -337.000; -229.000
218.520;    8.150;  -41.000;   96.000
218.665;  -30.825; -338.000; -204.000
218.810;  -38.775; -275.000; -233.000
218.954;    7.550;  201.000;   35.000
219.099; -114.700; -713.000; -963.000
219.243;  -54.425; -589.000; -554.000
219.388;  -34.800; -264.000; -136.000
219.532;   -9.025; -116.000; -116.000
219.677;  -80.175; -564.000; -521.000
219.822;    9.975;   33.000;   89.000
219.966;   -3.700;   17.000;  -99.000
220.111;  -19.175; -328.000;  -40.000
220.255;  -98.700; -797.000; -750.000
220.400;  -18.525; -180.000; -146.000
220.544;  -68.500; -516.000; -450.000
220.689;  -42.625; -422.000; -451.000
220.833;  -31.050; -123.000;  -58.000
220.978;  -31.175; -393.000; -563.000
221.122;   21.200;  319.000;  307.000
221.267; -101.225; -906.000; -837.000
221.411;  -74.775; -478.000; -394.000
221.555;   -3.375; -104.000;  -23.000
221.700;  -40.175; -329.000; -222.000
221.844;   35.100;  255.000;  272.000
221.989;  -38.825; -328.000; -311.000
222.133;  -34.125; -289.000; -307.000
222.277;   -2.025;    5.000;   78.000
222.422;   20.925;  227.000;  113.000
222.566;  -45.500; -381.000; -214.000
222.711;  -53.050; -414.000; -479.000
222.855;  -74.900; -643.000; -586.000
222.999;  -85.850; -642.000; -717.000
223.144;  -32.825; -195.000; -194.000
223.288;   67.325;  423.000;  251.000
223.432;   26.125;  184.000;  230.000
223.576;   28.600;  152.000;  -21.000
223.721;   27.575;  364.000;  273.000
223.865;  -55.400; -472.000; -475.000
224.009;  220.125; 1673.000; 1631.000
224.153;  -76.550; -660.000; -671.000
224.298;  -74.025; -531.000; -489.000
224.442;   -7.850;  -74.000;  -33.000
224.586;   -5.700; -169.000; -106.000
224.730;  -83.600; -858.000; -670.000
224.875;  -99.550; -739.000; -688.000
225.019;   20.750;  102.000;  188.000
225.163;   36.450;  208.000;  341.000
225.307;   26.525;   97.000;  -91.000
225.451;   34.775;  360.000;  481.000
225.595;   35.125;  264.000;  176.000
225.739;  -29.625; -170.000;  -94.000
225.884;   -0.400;   86.000;    5.000
226.028; -102.375; -760.000; -626.000
226.172;  -31.575; -260.000; -273.000
226.316; -121.225; -941.000; -902.000
226.460;  -53.200; -645.000; -493.000
226.604;  -44.975; -406.000; -400.000
226.748;  -94.800; -836.000; -733.000
226.892;  -28.050; -227.000; -181.000
227.036;  -41.150; -537.000; -447.000
227.180;  -48.025; -551.000; -375.000
227.324;  -63.900; -561.000; -580.000
227.468; -126.825; -819.000; -717.000
227.612;    9.600;  242.000;  -28.000
227.756; -101.400; -845.000; -698.000
227.900;   55.950;  342.000;  441.000
228.044;  -72.500; -509.000; -290.000
228.188;   54.225;  448.000;  568.000
228.332;  -93.500; -546.000; -472.000
228.476;  -16.450; -223.000; -149.000
228.620;  -25.775; -210.000; -150.000
228.764;   69.750;  431.000;  349.000
228.908;  -15.100; -155.000;   30.000
229.052;  -50.850; -615.000; -528.000
229.195;  -35.900; -172.000;   13.000
229.339;  -20.425; -235.000; -305.000
229.483;  -29.025;    5.000; -162.000
229.627;    2.100; -156.000;  139.000
229.771;  -60.700; -218.000; -294.000
229.915;   18.650;  230.000;   79.000
230.059;  -87.800; -648.000; -663.000
230.202;  -32.700; -370.000; -317.000
230.346;  -19.125; -107.000;  107.000
230.490;  -46.225; -489.000; -521.000
230.634; -114.075; -736.000; -553.000
230.777;   77.500;  478.000;  509.000
230.921;  -52.950; -450.000; -359.000
231.065;  -30.400; -246.000; -286.000
231.209;   28.850;  261.000;  265.000
231.352;   26.150;   54.000;   40.000
231.496;    4.500;  568.000;  188.000
231.640;  -68.475; -693.000; -621.000
231.783;   46.850;  546.000;  525.000
231.927;  -41.425; -294.000; -365.000
232.071; -114.200; -962.000; -736.000
232.214;  -90.500; -980.000; -764.000
232.358;  -96.100; -683.000; -599.000
232.502;   15.250;  -19.000;    7.000
232.645; -140.125;-1090.000; -927.000
232.789;  -12.525; -257.000; -218.000
232.933;  -54.325; -407.000; -224.000
233.076; -114.700;-1038.000; -897.000
233.220;  -96.400; -752.000; -777.000
233.363;  -70.325; -669.000; -477.000
233.507;   54.525;  371.000;  129.000
233.650;  -76.050; -764.000; -834.000
233.794;   33.575;  438.000;  461.000
233.938;  -41.700; -530.000; -362.000
234.081;  -13.425;  -93.000;   31.000
234.225;  -60.950; -631.000; -539.000
234.368; -119.650; -773.000; -723.000
234.512;  -51.025; -385.000; -299.000
234.655;  -89.700; -582.000; -555.000
234.798;  -52.400; -493.000; -466.000
234.942; -137.200; -884.000;-1002.000
235.085;  -78.550; -651.000; -443.000
235.229;  -81.275; -405.000; -410.000
235.372;  -40.775; -247.000; -191.000
235.516;  -71.475; -397.000; -321.000
235.659;   30.125;   92.000;  121.000
235.802;  -17.225;  -38.000;  -22.000
235.946;   36.850;  335.000;  215.000
236.089;   25.925;  126.000;  250.000
236.233;   56.650;  275.000;  298.000
236.376;  -55.575; -235.000; -378.000
236.519;  -39.775; -297.000; -319.000
236.663;  -11.575; -215.000; -117.000
236.806; -132.325;-1029.000; -999.000
236.949;   50.800;  543.000;  431.000
237.092;   55.500;  412.000;  391.000
237.236;  -91.925; -589.000; -502.000
237.379;   60.100;  352.000;  428.000
237.522; -135.900; -879.000; -768.000
237.666;   -4.975; -271.000;   18.000
237.809; -122.950; -851.000; -823.000
237.952;   44.125;  469.000;  271.000
238.095;  -65.525; -447.000; -442.000
238.238;   89.225;  688.000;  700.000
238.382;   -3.675;  166.000;  103.000
238.525;  -69.850; -598.000; -511.000
238.668; -137.875;-1060.000; -985.000
238.811;  -79.375; -638.000; -643.000
238.954;  -60.850; -483.000; -334.000
239.097;   93.000;  617.000;  664.000
239.241;   21.550;  394.000;  326.000
239.384;  -22.200; -254.000; -214.000
239.527;  -63.475; -424.000; -224.000
239.670; -140.625; -994.000;-1091.000
239.813; -101.275; -696.000; -658.000
239.956;   79.775;  579.000;  473.000
240.099; -108.225; -778.000; -725.000
240.242;   65.100;  428.000;  432.000
240.385;   49.750;  466.000;  450.000
240.528;  -71.525; -706.000; -473.000
240.671;   13.050;  189.000;  134.000
240.814;  -37.925; -441.000; -158.000
240.957; -104.250; -767.000; -578.000
241.100;  -86.400; -779.000; -755.000
241.243; -149.200;-1234.000; -893.000
241.386;  -59.550; -508.000; -379.000
241.529;  -84.050; -735.000; -547.000
241.672;  -47.900; -566.000; -495.000
241.815; -118.750; -832.000; -808.000
241.958;  -16.575; -125.000; -182.000
242.101;  -82.700; -545.000; -390.000
242.244;  -43.550; -270.000; -325.000
242.387;  -47.575; -304.000; -246.000
242.530;   69.475;  470.000;  134.000
242.673;  -51.825; -381.000; -309.000
242.815; -116.650; -925.000; -899.000
242.958;  -71.525; -482.000; -381.000
243.101;   10.875;  132.000;  187.000
243.244;  -80.350; -564.000; -521.000
243.387;  -37.800; -313.000; -316.000
243.530;  -95.325; -657.000; -674.000
243.672;    6.325;   43.000;  -92.000
243.815;  -56.100; -355.000; -283.000
243.958;   -2.350;   98.000;  -26.000
244.101;    5.675;   59.000;  -16.000
244.243;   -8.425;  -47.000;  101.000
244.386; -104.425; -761.000; -630.000
244.529;  -15.125; -132.000; -139.000
244.672; -164.600;-1154.000; -951.000
244.814;  -97.525; -621.000; -794.000
244.957;  -50.950; -380.000; -304.000
245.100;  -71.800; -489.000; -489.000
245.242;  -54.000; -387.000; -374.000
245.385;   12.375;  -59.000;  -39.000
245.528; -121.150; -871.000; -705.000
245.670;  107.000;  612.000;  634.000
245.813;  -98.275; -599.000; -547.000
245.956;  -31.500; -324.000; -275.000
246.098;  -75.500; -508.000; -650.000
246.241;    7.775;  194.000;   48.000
246.383;  -17.100; -119.000;  -73.000
246.526;  -75.200; -454.000; -525.000
246.669; -116.550; -889.000; -780.000
246.811;   31.000;  172.000;   -1.000
246.954;  -65.050; -512.000; -426.000
247.096;  -22.250;  -84.000;   -6.000
247.239;  -76.100; -482.000; -445.000
247.381;  -60.750; -647.000; -488.000
247.524;   78.375;  645.000;  679.000
247.666;    1.575;   58.000;   11.000
247.809; -113.175; -887.000; -691.000
247.951;   -2.525;  -75.000;  138.000
248.094;   28.525;  432.000;  308.000
248.236; -153.075;-1262.000;-1238.000
248.378;    1.625; -356.000;  -81.000
248.521;  -15.650; -334.000; -337.000
248.663;  -38.850; -236.000; -267.000
248.806;  -17.275; -300.000; -266.000
248.948;  -98.650; -886.000; -763.000
249.090;  -32.625; -428.000; -398.000
249.233;  -48.950; -344.000; -381.000
249.375;  -62.025; -474.000; -451.000
249.518;  -27.500;  -83.000; -133.000
249.660;    2.325; -103.000;    3.000
249.802; -169.725;-1303.000;-1189.000
249.945;  -65.975; -612.000; -540.000
250.087;  -91.600; -834.000; -768.000
250.229;  -47.425; -362.000; -480.000
250.371;  -65.400; -494.000; -439.000
250.514;  -40.425; -310.000; -244.000
250.656;  -45.525;   69.000;  102.000
250.798; -108.900; -849.000; -800.000
250.940;  -59.575; -322.000; -322.000
251.083;  -27.025; -335.000; -111.000
251.225;   48.550;  338.000;  310.000
251.367;  -38.275; -274.000; -373.000
251.509;  -36.800; -265.000; -210.000
251.651;  -86.600; -731.000; -671.000
251.794;   46.775;  538.000;  632.000
251.936;  -84.075; -821.000; -747.000
252.078;  -63.850; -540.000; -461.000
252.220;  -70.700; -645.000; -477.000
252.362;   72.525;  344.000;  462.000
252.504;  -63.300; -677.000; -584.000
252.646; -121.375; -875.000; -722.000
252.788;   -3.000;   14.000; -128.000
252.931;  -45.850; -257.000; -253.000
253.073;  -36.050; -376.000; -317.000
253.215;   -3.325;  141.000;  122.000
253.357;   -2.425;   82.000; -153.000
253.499;  -55.275; -374.000; -234.000
253.641;  -83.700; -749.000; -594.000
253.783; -101.500; -609.000; -527.000
253.925;  -79.025; -586.000; -591.000
254.067; -107.500; -744.000; -667.000
254.209;  -19.775; -391.000; -259.000
254.351; -131.650; -865.000; -883.000
254.493;  -59.475; -441.000; -417.000
254.635; -126.275; -936.000; -818.000
254.777;  -82.475; -752.000; -687.000
254.918;  -56.450; -512.000; -430.000
255.060;  -51.850; -551.000; -395.000
255.202;  -67.850; -473.000; -261.000
255.344;  -71.400; -658.000; -455.000
255.486;  -71.350; -471.000; -406.000
255.628; -106.625; -780.000; -781.000
255.770;  -99.575; -676.000; -536.000
255.912;  -66.100; -559.000; -468.000
256.053;  -99.300; -730.000; -508.000
256.195;  155.650; 1008.000;  903.000
256.337; -110.775; -861.000; -595.000
256.479;   64.750;  532.000;  416.000
256.621;  -53.225; -394.000; -212.000
256.762;  -84.400; -789.000; -742.000
256.904;   44.625;  485.000;  487.000
257.046;  -42.125; -381.000; -271.000
257.188;  -41.750; -351.000; -264.000
257.329;  -62.500; -525.000; -464.000
257.471; -121.225; -939.000; -807.000
257.613;  -53.550; -584.000; -498.000
257.755; -139.850;-1073.000; -982.000
257.896;   45.800;  286.000;  392.000
258.038;  -68.975; -403.000; -352.000
258.180;  -36.550; -354.000; -279.000
258.321;  -84.675; -581.000; -457.000
258.463;   -6.425;  -71.000;  133.000
258.605;  -86.400; -562.000; -570.000
258.746;  -94.600; -886.000; -772.000
258.888; -144.925;-1026.000;-1020.000
259.029;    6.625;  121.000;   -8.000
259.171;  -99.475; -614.000; -550.000
259.313;    8.650;  -49.000;  -47.000
259.454;  -86.025; -536.000; -414.000
259.596;  -57.775; -483.000; -390.000
259.737;  -81.375; -590.000; -474.000
259.879;   29.200;  217.000;  311.000
260.020;   77.225;  901.000;  636.000
260.162;  -24.275; -146.000; -253.000
260.303; -116.600; -768.000; -687.000
260.445;  -75.900; -609.000; -613.000
260.586;   23.600;  392.000;  157.000
260.728;  -51.925; -360.000; -248.000
260.869; -104.450; -350.000; -343.000
261.011;   83.200;  706.000;  537.000
261.152;  -70.175; -479.000; -319.000
261.293;  -76.875; -576.000; -595.000
261.435;  -20.425; -219.000; -184.000
261.576;  -43.225; -455.000; -325.000
261.718;   59.750;  420.000;  470.000
261.859; -120.450; -940.000; -949.000
262.000; -127.000; -951.000;-1016.000
262.142;  -18.900;  -52.000;  -60.000
262.283; -121.725; -808.000; -691.000
262.424;  -73.600; -666.000; -625.000
262.566; -149.600;-1161.000; -983.000
262.707; -106.075; -840.000; -830.000
262.848; -114.825; -769.000; -726.000
262.990;  -37.850; -362.000; -345.000
263.131;   74.500;  650.000;  681.000
263.272;  -19.075;  -61.000;  -41.000
263.413;  -93.150; -589.000; -561.000
263.555;  -67.450; -669.000; -143.000
263.696;  -91.175; -550.000; -641.000
263.837;  -53.850; -449.000; -551.000
263.978;   -6.600;   -5.000;  -77.000
264.119;  -42.575; -283.000; -264.000
264.261; -108.950; -847.000; -630.000
264.402;   -1.150;   33.000;   40.000
264.543;  -88.475; -509.000; -524.000
264.684;    4.275;   61.000;  -50.000
264.825;  -79.025; -816.000; -538.000
264.966;   -1.600;  -84.000;  -67.000
265.107; -115.675; -646.000; -670.000
265.248; -106.525; -825.000; -812.000
265.390;  -15.275;  152.000;   -9.000
265.531;  -22.125; -238.000; -107.000
265.672; -100.350; -557.000; -630.000
265.813;   49.375;  563.000;  439.000
265.954; -142.125; -959.000; -940.000
266.095;   -2.525; -372.000; -322.000
266.236;  -98.275; -686.000; -548.000
266.377;  -26.725; -243.000; -297.000
266.518;  -82.050; -619.000; -547.000
266.659;   37.125;  170.000;  268.000
266.800;    3.950;   83.000;   85.000
266.941;  -67.625; -487.000; -478.000
267.082;    7.700;  354.000;   99.000
267.223;  -43.925; -344.000; -273.000
267.364; -112.750; -892.000; -686.000
267.504;  -11.175;    3.000;  135.000
267.645;   -9.850;  160.000;   67.000
267.786;  -27.700; -147.000;  -86.000
267.927;  -64.275; -473.000; -379.000
268.068;  -20.650; -186.000;  -61.000
268.209;  -52.200; -175.000; -413.000
268.350;  -58.225; -388.000; -532.000
268.490;  -80.125; -648.000; -521.000
268.631;   32.025;  127.000;  225.000
268.772; -107.375; -874.000; -647.000
268.913;  -41.825; -328.000; -476.000
269.054;  -22.400; -117.000;   12.000
269.194;  -49.000; -418.000; -402.000
269.335; -151.550;-1137.000;-1074.000
269.476;   -4.875;   33.000;  -35.000
269.617;  -56.375; -347.000; -392.000
269.757;  -88.125; -713.000; -646.000
269.898; -105.625; -856.000; -613.000
270.039;  -48.650; -415.000; -405.000
270.180; -130.625; -952.000; -816.000
270.320;  -25.100; -190.000; -250.000
