
Integration time [ms]: 200.000
Averaging Nr. [scans]: 10
Smoothing Nr. [pixels]: 0
Data measured with spectrometer [name]: 2101012U2
Wave   ;Sample   ;Dark     ;Reference
[nm]   ;[counts] ;[counts] ;[counts] 

197.733;  122.200;  516.000;  404.000
197.879; -172.700; -610.000; -634.000
198.025; -110.300; -475.000; -420.000
198.171; -160.900; -602.000; -612.000
198.317;  -51.900; -401.000; -316.000
198.463; -152.300; -655.000; -404.000
198.609;   50.100;  181.000; -137.000
198.755; -162.900; -644.000; -410.000
198.901; -139.900; -505.000; -424.000
199.047; -149.500; -615.000; -488.000
199.193;  -72.000; -230.000; -468.000
199.339; -102.600; -222.000; -369.000
199.485;   72.200;  330.000;  271.000
199.631;   25.700;  227.000;  310.000
199.777; -105.000; -466.000; -398.000
199.923; -147.700; -610.000; -424.000
200.069;    7.500; -141.000;  -58.000
200.215;  102.500;  128.000;  453.000
200.361;  111.300;  243.000;  477.000
200.507; -135.600; -600.000; -373.000
200.653;  -58.500; -371.000; -194.000
200.798;  -46.500; -215.000; -125.000
200.944;   -5.200; -146.000;  -41.000
201.090;   44.900;   61.000;  222.000
201.236;  -33.100; -116.000; -158.000
201.382;  218.300;  874.000;  903.000
201.528;   22.800;  -58.000;  -48.000
201.674;  -63.200; -386.000; -293.000
201.819; -141.600; -540.000; -439.000
201.965; -145.800; -699.000; -447.000
202.111;  -55.600; -273.000; -226.000
202.257;  -87.800; -250.000; -238.000
202.402;   41.500;   13.000;  -36.000
202.548; -103.500; -169.000; -116.000
202.694;  194.700;  410.000; -183.000
202.840; -162.900; -603.000; -531.000
202.985; -141.800; -681.000; -639.000
203.131; -207.900; -832.000; -666.000
203.277;  -34.600; -199.000; -262.000
203.423; -103.300; -434.000; -520.000
203.568; -106.200; -462.000; -237.000
203.714; -135.700; -535.000; -542.000
203.860; -169.800; -682.000; -641.000
204.005;   25.000;  112.000;  167.000
204.151;  165.800;  561.000;  556.000
204.296;  -93.400; -354.000; -221.000
204.442; -145.800; -600.000; -547.000
204.588; -170.100; -592.000; -579.000
204.733;   36.700;  178.000;  168.000
204.879; -275.300;-1018.000; -822.000
205.025;   10.900;  -99.000;  126.000
205.170;    0.200;  -17.000;   94.000
205.316;  189.000;  438.000;  661.000
205.461; -198.000; -698.000; -554.000
205.607;  199.500;  609.000;  665.000
205.752; -149.500; -626.000; -551.000
205.898; -100.100; -501.000; -391.000
206.043; -119.400; -578.000; -506.000
206.189; -103.300; -243.000; -285.000
206.334;  160.400;  554.000;  606.000
206.480;  180.300;  409.000;  239.000
206.625; -165.700; -529.000; -552.000
206.771;  -79.900; -451.000; -373.000
206.916;  -80.700; -210.000; -537.000
207.062; -155.500; -545.000; -591.000
207.207; -150.800; -546.000; -443.000
207.353;   92.100;  185.000;  460.000
207.498;   27.400;  196.000;   85.000
207.643;  -70.600; -501.000; -370.000
207.789; -236.900;-1069.000; -910.000
207.934; -157.500; -665.000; -713.000
208.080;  -67.900; -154.000;   66.000
208.225;  -12.600;  -22.000;  -57.000
208.370; -142.300; -727.000; -619.000
208.516; -131.300; -741.000; -487.000
208.661;  -93.100; -127.000;  -69.000
208.806;  -10.700; -165.000; -171.000
208.952; -268.900;-1044.000; -731.000
209.097;  169.500;  378.000;  349.000
209.242; -120.100; -307.000; -382.000
209.387;  104.200;  392.000;  350.000
209.533; -112.500; -321.000; -350.000
209.678;  150.500;  472.000;  543.000
209.823; -137.600; -408.000; -310.000
209.969; -210.300; -860.000; -757.000
210.114; -225.400; -907.000; -719.000
210.259; -214.600; -939.000; -889.000
210.404;  -28.100; -171.000;  103.000
210.549;   16.600;  108.000;    3.000
210.695;  -34.700;   -3.000;  -95.000
210.840;  107.000;   94.000;   67.000
210.985; -117.800; -484.000; -303.000
211.130;  164.700;  268.000;  406.000
211.275;   49.300;  207.000;  199.000
211.420; -111.500; -300.000; -289.000
211.566; -184.800; -536.000; -489.000
211.711;   54.800;  218.000;  157.000
211.856; -125.100; -545.000; -519.000
212.001;    6.000;  151.000;   44.000
212.146;   -3.200;  153.000;   49.000
212.291;  -25.200; -210.000; -186.000
212.436;  -30.800; -280.000;   -6.000
212.581; -157.900; -685.000; -653.000
212.726; -160.200; -487.000; -538.000
212.871;  -82.600; -552.000; -217.000
213.016; -328.000;-1172.000;-1029.000
213.161;  133.800;  406.000;  291.000
213.306; -150.100; -435.000; -577.000
213.451; -169.400; -778.000; -689.000
213.596;  -90.800; -455.000; -347.000
213.741;  -78.600; -448.000; -538.000
213.886; -155.100; -498.000; -517.000
214.031;  -13.100; -294.000; -124.000
214.176; -102.000; -408.000; -341.000
214.321;  -35.200; -296.000; -157.000
214.466;  -52.700; -163.000;  -43.000
214.611;    4.100;  -61.000;  -10.000
214.756; -235.900; -948.000; -858.000
214.901;  -63.500; -388.000; -226.000
215.046; -252.000; -797.000; -825.000
215.191;   46.200;  128.000;   35.000
215.336;  -22.800; -157.000;  -19.000
215.480; -106.500; -684.000; -505.000
215.625;  -25.400; -175.000;  -19.000
215.770; -165.300; -757.000; -662.000
215.915;  -39.400;   -5.000;  -97.000
216.060;  -30.000; -113.000;  -21.000
216.205; -221.300; -731.000; -779.000
216.349; -127.200; -470.000; -533.000
216.494; -259.700; -939.000; -867.000
216.639; -235.800; -823.000; -888.000
216.784; -192.600; -577.000; -525.000
216.929;   91.100;  392.000;  281.000
217.073;  -25.300; -244.000;  -31.000
217.218;   25.900;   78.000;  -47.000
217.363; -171.800; -656.000; -618.000
217.507; -163.500; -623.000; -588.000
217.652; -249.200; -845.000; -874.000
217.797; -172.900; -708.000; -659.000
217.942; -223.500; -856.000; -720.000
218.086;  158.600;  608.000;  539.000
218.231;  -46.500; -174.000;  -26.000
218.376;  -32.300; -337.000; -229.000
218.520;    0.700;  -41.000;   96.000
218.665;  -52.500; -338.000; -204.000
218.810;  -95.800; -275.000; -233.000
218.954;   44.700;  201.000;   35.000
219.099; -238.700; -713.000; -963.000
219.243; -113.200; -589.000; -554.000
219.388;  -92.600; -264.000; -136.000
219.532;   -0.200; -116.000; -116.000
219.677; -151.100; -564.000; -521.000
219.822;   27.300;   33.000;   89.000
219.966;   -2.600;   17.000;  -99.000
220.111;  -49.600; -328.000;  -40.000
220.255; -195.500; -797.000; -750.000
220.400;  -51.900; -180.000; -146.000
220.544; -139.100; -516.000; -450.000
220.689;  -79.600; -422.000; -451.000
220.833;  -65.500; -123.000;  -58.000
220.978;  -66.300; -393.000; -563.000
221.122;   35.600;  319.000;  307.000
221.267; -237.800; -906.000; -837.000
221.411; -162.800; -478.000; -394.000
221.555;  -30.800; -104.000;  -23.000
221.700;  -92.100; -329.000; -222.000
221.844;   95.000;  255.000;  272.000
221.989; -101.500; -328.000; -311.000
222.133;  -63.400; -289.000; -307.000
222.277;  -28.800;    5.000;   78.000
222.422;   65.800;  227.000;  113.000
222.566;  -65.700; -381.000; -214.000
222.711; -125.300; -414.000; -479.000
222.855; -153.300; -643.000; -586.000
222.999; -156.300; -642.000; -717.000
223.144;  -59.000; -195.000; -194.000
223.288;  127.500;  423.000;  251.000
223.432;   16.400;  184.000;  230.000
223.576;   79.100;  152.000;  -21.000
223.721;   77.300;  364.000;  273.000
223.865;  -86.300; -472.000; -475.000
224.009;  486.800; 1673.000; 1631.000
224.153; -158.000; -660.000; -671.000
224.298; -144.400; -531.000; -489.000
224.442;  -32.100;  -74.000;  -33.000
224.586;  -37.500; -169.000; -106.000
224.730; -159.800; -858.000; -670.000
224.875; -235.500; -739.000; -688.000
225.019;   24.000;  102.000;  188.000
225.163;  137.700;  208.000;  341.000
225.307;   62.700;   97.000;  -91.000
225.451;   86.600;  360.000;  481.000
225.595;   82.100;  264.000;  176.000
225.739;  -23.300; -170.000;  -94.000
225.884;   26.700;   86.000;    5.000
226.028; -204.100; -760.000; -626.000
226.172;  -43.800; -260.000; -273.000
226.316; -248.100; -941.000; -902.000
226.460; -114.400; -645.000; -493.000
226.604; -108.500; -406.000; -400.000
226.748; -198.900; -836.000; -733.000
226.892;  -71.000; -227.000; -181.000
227.036;  -86.300; -537.000; -447.000
227.180; -113.900; -551.000; -375.000
227.324; -133.700; -561.000; -580.000
227.468; -220.300; -819.000; -717.000
227.612;   53.700;  242.000;  -28.000
227.756; -232.900; -845.000; -698.000
227.900;  117.600;  342.000;  441.000
228.044; -121.000; -509.000; -290.000
228.188;  131.900;  448.000;  568.000
228.332; -188.500; -546.000; -472.000
228.476;  -42.400; -223.000; -149.000
228.620;  -62.000; -210.000; -150.000
228.764;  134.600;  431.000;  349.000
228.908;  -32.000; -155.000;   30.000
229.052; -123.300; -615.000; -528.000
229.195;  -21.600; -172.000;   13.000
229.339;  -64.100; -235.000; -305.000
229.483;  -70.800;    5.000; -162.000
229.627;   24.300; -156.000;  139.000
229.771; -114.700; -218.000; -294.000
229.915;   20.200;  230.000;   79.000
230.059; -183.000; -648.000; -663.000
230.202;  -88.600; -370.000; -317.000
230.346;  -36.800; -107.000;  107.000
230.490;  -89.500; -489.000; -521.000
230.634; -222.600; -736.000; -553.000
230.777;  142.000;  478.000;  509.000
230.921; -103.000; -450.000; -359.000
231.065;  -72.300; -246.000; -286.000
231.209;   49.500;  261.000;  265.000
231.352;   38.200;   54.000;   40.000
231.496;   45.100;  568.000;  188.000
231.640; -168.200; -693.000; -621.000
231.783;  131.500;  546.000;  525.000
231.927;  -92.700; -294.000; -365.000
232.071; -228.600; -962.000; -736.000
232.214; -198.500; -980.000; -764.000
232.358; -193.600; -683.000; -599.000
232.502;   16.500;  -19.000;    7.000
232.645; -290.900;-1090.000; -927.000
232.789;  -42.100; -257.000; -218.000
232.933;  -62.200; -407.000; -224.000
233.076; -230.600;-1038.000; -897.000
233.220; -219.100; -752.000; -777.000
233.363; -144.700; -669.000; -477.000
233.507;  124.200;  371.000;  129.000
233.650; -176.700; -764.000; -834.000
233.794;   71.200;  438.000;  461.000
233.938; -100.800; -530.000; -362.000
234.081;  -27.100;  -93.000;   31.000
234.225; -112.900; -631.000; -539.000
234.368; -222.900; -773.000; -723.000
234.512;  -54.200; -385.000; -299.000
234.655; -188.800; -582.000; -555.000
234.798; -109.700; -493.000; -466.000
234.942; -265.300; -884.000;-1002.000
235.085; -139.400; -651.000; -443.000
235.229; -156.000; -405.000; -410.000
235.372;  -61.200; -247.000; -191.000
235.516; -104.500; -397.000; -321.000
235.659;   62.300;   92.000;  121.000
235.802;  -15.400;  -38.000;  -22.000
235.946;   42.700;  335.000;  215.000
236.089;   54.700;  126.000;  250.000
236.233;  158.500;  275.000;  298.000
236.376;  -99.200; -235.000; -378.000
236.519;  -71.100; -297.000; -319.000
236.663;  -64.000; -215.000; -117.000
236.806; -261.200;-1029.000; -999.000
236.949;  110.300;  543.000;  431.000
237.092;  124.400;  412.000;  391.000
237.236; -149.400; -589.000; -502.000
237.379;  126.100;  352.000;  428.000
237.522; -231.900; -879.000; -768.000
237.666;    0.900; -271.000;   18.000
237.809; -229.500; -851.000; -823.000
237.952;   77.800;  469.000;  271.000
238.095; -137.700; -447.000; -442.000
238.238;  171.000;  688.000;  700.000
238.382;    6.100;  166.000;  103.000
238.525; -122.700; -598.000; -511.000
238.668; -284.900;-1060.000; -985.000
238.811; -169.300; -638.000; -643.000
238.954; -123.000; -483.000; -334.000
239.097;  182.200;  617.000;  664.000
239.241;   53.600;  394.000;  326.000
239.384;  -34.900; -254.000; -214.000
239.527; -113.900; -424.000; -224.000
239.670; -270.200; -994.000;-1091.000
239.813; -227.700; -696.000; -658.000
239.956;  164.600;  579.000;  473.000
240.099; -214.600; -778.000; -725.000
240.242;  128.800;  428.000;  432.000
240.385;   92.400;  466.000;  450.000
240.528; -118.200; -706.000; -473.000
240.671;   12.900;  189.000;  134.000
240.814;  -83.700; -441.000; -158.000
240.957; -195.000; -767.000; -578.000
241.100; -171.500; -779.000; -755.000
241.243; -290.600;-1234.000; -893.000
241.386; -103.300; -508.000; -379.000
241.529; -171.300; -735.000; -547.000
241.672; -109.200; -566.000; -495.000
241.815; -214.300; -832.000; -808.000
241.958;  -57.800; -125.000; -182.000
242.101; -155.100; -545.000; -390.000
242.244;  -64.500; -270.000; -325.000
242.387;  -60.300; -304.000; -246.000
242.530;  135.700;  470.000;  134.000
242.673;  -70.700; -381.000; -309.000
242.815; -235.800; -925.000; -899.000
242.958; -177.800; -482.000; -381.000
243.101;   54.100;  132.000;  187.000
243.244; -152.000; -564.000; -521.000
243.387;  -90.900; -313.000; -316.000
243.530; -231.200; -657.000; -674.000
243.672;   19.200;   43.000;  -92.000
243.815;  -99.100; -355.000; -283.000
243.958;   13.700;   98.000;  -26.000
244.101;    6.600;   59.000;  -16.000
244.243;   -6.600;  -47.000;  101.000
244.386; -191.300; -761.000; -630.000
244.529;  -21.500; -132.000; -139.000
244.672; -306.600;-1154.000; -951.000
244.814; -214.400; -621.000; -794.000
244.957;  -93.600; -380.000; -304.000
245.100; -133.900; -489.000; -489.000
245.242; -113.700; -387.000; -374.000
245.385;  -22.000;  -59.000;  -39.000
245.528; -227.700; -871.000; -705.000
245.670;  167.400;  612.000;  634.000
245.813; -175.800; -599.000; -547.000
245.956;  -61.300; -324.000; -275.000
246.098; -111.700; -508.000; -650.000
246.241;   22.400;  194.000;   48.000
246.383;  -42.600; -119.000;  -73.000
246.526; -149.900; -454.000; -525.000
246.669; -228.500; -889.000; -780.000
246.811;   32.000;  172.000;   -1.000
246.954; -105.200; -512.000; -426.000
247.096;  -45.900;  -84.000;   -6.000
247.239; -159.200; -482.000; -445.000
247.381; -152.500; -647.000; -488.000
247.524;  168.200;  645.000;  679.000
247.666;  -11.900;   58.000;   11.000
247.809; -244.400; -887.000; -691.000
247.951;    1.500;  -75.000;  138.000
248.094;   44.900;  432.000;  308.000
248.236; -317.700;-1262.000;-1238.000
248.378; -100.500; -356.000;  -81.000
248.521; -117.600; -334.000; -337.000
248.663;  -85.200; -236.000; -267.000
248.806;  -89.700; -300.000; -266.000
248.948; -222.600; -886.000; -763.000
249.090; -119.600; -428.000; -398.000
249.233; -126.500; -344.000; -381.000
249.375; -121.000; -474.000; -451.000
249.518;  -49.900;  -83.000; -133.000
249.660;  -20.800; -103.000;    3.000
249.802; -349.300;-1303.000;-1189.000
249.945; -148.200; -612.000; -540.000
250.087; -216.100; -834.000; -768.000
250.229;  -89.400; -362.000; -480.000
250.371; -162.600; -494.000; -439.000
250.514;  -91.900; -310.000; -244.000
250.656; -130.100;   69.000;  102.000
250.798; -233.900; -849.000; -800.000
250.940;  -99.300; -322.000; -322.000
251.083;  -47.900; -335.000; -111.000
251.225;   78.800;  338.000;  310.000
251.367;  -89.700; -274.000; -373.000
251.509; -109.400; -265.000; -210.000
251.651; -217.100; -731.000; -671.000
251.794;  170.100;  538.000;  632.000
251.936; -212.200; -821.000; -747.000
252.078; -159.200; -540.000; -461.000
252.220; -131.800; -645.000; -477.000
252.362;   76.600;  344.000;  462.000
252.504; -155.400; -677.000; -584.000
252.646; -235.300; -875.000; -722.000
252.788;  -16.100;   14.000; -128.000
252.931;  -95.900; -257.000; -253.000
253.073;  -92.700; -376.000; -317.000
253.215;  -32.100;  141.000;  122.000
253.357;  -15.500;   82.000; -153.000
253.499;  -93.000; -374.000; -234.000
253.641; -177.000; -749.000; -594.000
253.783; -199.100; -609.000; -527.000
253.925; -175.300; -586.000; -591.000
254.067; -216.000; -744.000; -667.000
254.209;  -68.200; -391.000; -259.000
254.351; -311.300; -865.000; -883.000
254.493; -116.000; -441.000; -417.000
254.635; -248.100; -936.000; -818.000
254.777; -203.700; -752.000; -687.000
254.918; -178.000; -512.000; -430.000
255.060; -138.600; -551.000; -395.000
255.202; -104.100; -473.000; -261.000
255.344; -140.100; -658.000; -455.000
255.486; -146.800; -471.000; -406.000
255.628; -190.000; -780.000; -781.000
255.770; -165.500; -676.000; -536.000
255.912;  -91.900; -559.000; -468.000
256.053; -180.500; -730.000; -508.000
256.195;  332.200; 1008.000;  903.000
256.337; -224.400; -861.000; -595.000
256.479;  113.600;  532.000;  416.000
256.621;  -73.300; -394.000; -212.000
256.762; -189.700; -789.000; -742.000
256.904;  100.800;  485.000;  487.000
257.046;  -67.300; -381.000; -271.000
257.188;  -89.400; -351.000; -264.000
257.329; -158.500; -525.000; -464.000
257.471; -231.600; -939.000; -807.000
257.613; -111.400; -584.000; -498.000
257.755; -312.100;-1073.000; -982.000
257.896;  119.600;  286.000;  392.000
258.038; -141.000; -403.000; -352.000
258.180;  -71.700; -354.000; -279.000
258.321; -178.800; -581.000; -457.000
258.463;   11.700;  -71.000;  133.000
258.605; -180.800; -562.000; -570.000
258.746; -180.100; -886.000; -772.000
258.888; -314.800;-1026.000;-1020.000
259.029;   73.700;  121.000;   -8.000
259.171; -159.900; -614.000; -550.000
259.313;   22.700;  -49.000;  -47.000
259.454; -154.500; -536.000; -414.000
259.596; -115.100; -483.000; -390.000
259.737; -119.100; -590.000; -474.000
259.879;  100.700;  217.000;  311.000
260.020;  179.000;  901.000;  636.000
260.162;  -71.000; -146.000; -253.000
260.303; -214.500; -768.000; -687.000
260.445; -164.900; -609.000; -613.000
260.586;   81.500;  392.000;  157.000
260.728;  -64.400; -360.000; -248.000
260.869; -143.400; -350.000; -343.000
261.011;  170.400;  706.000;  537.000
261.152; -129.200; -479.000; -319.000
261.293; -188.000; -576.000; -595.000
261.435;  -26.200; -219.000; -184.000
261.576;  -91.900; -455.000; -325.000
261.718;  107.100;  420.000;  470.000
261.859; -218.700; -940.000; -949.000
262.000; -253.300; -951.000;-1016.000
262.142;   -8.500;  -52.000;  -60.000
262.283; -213.200; -808.000; -691.000
262.424; -179.100; -666.000; -625.000
262.566; -313.000;-1161.000; -983.000
262.707; -206.800; -840.000; -830.000
262.848; -241.400; -769.000; -726.000
262.990;  -89.600; -362.000; -345.000
263.131;  163.100;  650.000;  681.000
263.272;  -23.100;  -61.000;  -41.000
263.413; -194.800; -589.000; -561.000
263.555; -130.500; -669.000; -143.000
263.696; -170.900; -550.000; -641.000
263.837;  -95.100; -449.000; -551.000
263.978;  -20.300;   -5.000;  -77.000
264.119;  -65.100; -283.000; -264.000
264.261; -237.800; -847.000; -630.000
264.402;   22.600;   33.000;   40.000
264.543; -150.000; -509.000; -524.000
264.684;  -38.500;   61.000;  -50.000
264.825; -188.300; -816.000; -538.000
264.966;   27.100;  -84.000;  -67.000
265.107; -230.600; -646.000; -670.000
265.248; -235.400; -825.000; -812.000
265.390;  -15.100;  152.000;   -9.000
265.531;  -10.600; -238.000; -107.000
265.672; -186.700; -557.000; -630.000
265.813;  157.000;  563.000;  439.000
265.954; -276.900; -959.000; -940.000
266.095;  -34.800; -372.000; -322.000
266.236; -182.500; -686.000; -548.000
266.377;  -83.500; -243.000; -297.000
266.518; -136.200; -619.000; -547.000
266.659;   60.400;  170.000;  268.000
266.800;    2.000;   83.000;   85.000
266.941; -143.300; -487.000; -478.000
267.082;   16.400;  354.000;   99.000
267.223;  -77.600; -344.000; -273.000
267.364; -238.500; -892.000; -686.000
267.504;  -29.700;    3.000;  135.000
267.645;   15.500;  160.000;   67.000
267.786;  -56.300; -147.000;  -86.000
267.927; -142.900; -473.000; -379.000
268.068;  -56.500; -186.000;  -61.000
268.209;  -98.500; -175.000; -413.000
268.350;  -99.100; -388.000; -532.000
268.490; -172.200; -648.000; -521.000
268.631;   63.400;  127.000;  225.000
268.772; -236.700; -874.000; -647.000
268.913; -111.700; -328.000; -476.000
269.054;  -59.900; -117.000;   12.000
269.194; -118.900; -418.000; -402.000
269.335; -298.500;-1137.000;-1074.000
269.476;  -20.800;   33.000;  -35.000
269.617; -111.800; -347.000; -392.000
269.757; -203.700; -713.000; -646.000
269.898; -213.500; -856.000; -613.000
270.039; -116.300; -415.000; -405.000
270.180; -275.600; -952.000; -816.000
270.320;  -54.400; -190.000; -250.000
