
Integration time [ms]: 100.000
Averaging Nr. [scans]: 40
Smoothing Nr. [pixels]: 0
Data measured with spectrometer [name]: 2101012U2
Wave   ;Sample   ;Dark     ;Reference
[nm]   ;[counts] ;[counts] ;[counts] 

197.733;   53.050;  516.000;  404.000
197.879;  -68.975; -610.000; -634.000
198.025;  -53.575; -475.000; -420.000
198.171;  -66.450; -602.000; -612.000
198.317;  -31.075; -401.000; -316.000
198.463;  -60.750; -655.000; -404.000
198.609;   13.925;  181.000; -137.000
198.755;  -69.425; -644.000; -410.000
198.901;  -46.650; -505.000; -424.000
199.047;  -66.925; -615.000; -488.000
199.193;  -28.325; -230.000; -468.000
199.339;  -27.950; -222.000; -369.000
199.485;   36.850;  330.000;  271.000
199.631;    5.900;  227.000;  310.000
199.777;  -46.425; -466.000; -398.000
199.923;  -57.925; -610.000; -424.000
200.069;  -14.875; -141.000;  -58.000
200.215;   55.000;  128.000;  453.000
200.361;   40.200;  243.000;  477.000
200.507;  -57.050; -600.000; -373.000
200.653;  -30.850; -371.000; -194.000
200.798;  -32.350; -215.000; -125.000
200.944;   -1.650; -146.000;  -41.000
201.090;   26.600;   61.000;  222.000
201.236;  -11.775; -116.000; -158.000
201.382;  102.575;  874.000;  903.000
201.528;   -0.400;  -58.000;  -48.000
201.674;  -44.300; -386.000; -293.000
201.819;  -71.925; -540.000; -439.000
201.965;  -70.775; -699.000; -447.000
202.111;  -23.700; -273.000; -226.000
202.257;  -38.125; -250.000; -238.000
202.402;    1.300;   13.000;  -36.000
202.548;  -18.025; -169.000; -116.000
202.694;   76.625;  410.000; -183.000
202.840;  -69.100; -603.000; -531.000
202.985;  -67.425; -681.000; -639.000
203.131;  -89.050; -832.000; -666.000
203.277;  -23.475; -199.000; -262.000
203.423;  -53.450; -434.000; -520.000
203.568;  -45.275; -462.000; -237.000
203.714;  -68.450; -535.000; -542.000
203.860;  -76.150; -682.000; -641.000
204.005;   14.175;  112.000;  167.000
204.151;   66.000;  561.000;  556.000
204.296;  -40.625; -354.000; -221.000
204.442;  -72.125; -600.000; -547.000
204.588;  -59.400; -592.000; -579.000
204.733;   10.300;  178.000;  168.000
204.879; -125.000;-1018.000; -822.000
205.025;    2.850;  -99.000;  126.000
205.170;   10.750;  -17.000;   94.000
205.316;   78.600;  438.000;  661.000
205.461;  -79.125; -698.000; -554.000
205.607;   86.125;  609.000;  665.000
205.752;  -77.500; -626.000; -551.000
205.898;  -46.450; -501.000; -391.000
206.043;  -65.275; -578.000; -506.000
206.189;  -42.050; -243.000; -285.000
206.334;   82.550;  554.000;  606.000
206.480;   67.875;  409.000;  239.000
206.625;  -85.550; -529.000; -552.000
206.771;  -43.925; -451.000; -373.000
206.916;  -32.200; -210.000; -537.000
207.062;  -73.350; -545.000; -591.000
207.207;  -59.175; -546.000; -443.000
207.353;   41.150;  185.000;  460.000
207.498;    9.500;  196.000;   85.000
207.643;  -40.100; -501.000; -370.000
207.789; -111.575;-1069.000; -910.000
207.934;  -93.225; -665.000; -713.000
208.080;  -11.900; -154.000;   66.000
208.225;   -9.150;  -22.000;  -57.000
208.370;  -73.975; -727.000; -619.000
208.516;  -69.900; -741.000; -487.000
208.661;  -33.100; -127.000;  -69.000
208.806;  -21.975; -165.000; -171.000
208.952; -105.025;-1044.000; -731.000
209.097;   66.175;  378.000;  349.000
209.242;  -30.875; -307.000; -382.000
209.387;   89.000;  392.000;  350.000
209.533;  -45.025; -321.000; -350.000
209.678;   70.750;  472.000;  543.000
209.823;  -53.225; -408.000; -310.000
209.969; -101.225; -860.000; -757.000
210.114;  -92.700; -907.000; -719.000
210.259; -110.100; -939.000; -889.000
210.404;   -4.625; -171.000;  103.000
210.549;   10.600;  108.000;    3.000
210.695;   -0.625;   -3.000;  -95.000
210.840;   19.275;   94.000;   67.000
210.985;  -58.550; -484.000; -303.000
211.130;   54.875;  268.000;  406.000
211.275;   19.125;  207.000;  199.000
211.420;  -30.075; -300.000; -289.000
211.566;  -64.825; -536.000; -489.000
211.711;   11.200;  218.000;  157.000
211.856;  -58.875; -545.000; -519.000
212.001;   10.800;  151.000;   44.000
212.146;   19.150;  153.000;   49.000
212.291;   -7.975; -210.000; -186.000
212.436;  -24.275; -280.000;   -6.000
212.581;  -72.025; -685.000; -653.000
212.726;  -82.175; -487.000; -538.000
212.871;  -46.675; -552.000; -217.000
213.016; -132.850;-1172.000;-1029.000
213.161;   63.750;  406.000;  291.000
213.306;  -75.175; -435.000; -577.000
213.451;  -88.775; -778.000; -689.000
213.596;  -41.675; -455.000; -347.000
213.741;  -60.700; -448.000; -538.000
213.886;  -66.000; -498.000; -517.000
214.031;  -20.150; -294.000; -124.000
214.176;  -44.725; -408.000; -341.000
214.321;  -14.650; -296.000; -157.000
214.466;  -17.975; -163.000;  -43.000
214.611;   -6.125;  -61.000;  -10.000
214.756;  -96.825; -948.000; -858.000
214.901;  -28.725; -388.000; -226.000
215.046; -101.925; -797.000; -825.000
215.191;   17.975;  128.000;   35.000
215.336;    1.575; -157.000;  -19.000
215.480;  -82.300; -684.000; -505.000
215.625;   -7.250; -175.000;  -19.000
215.770;  -73.875; -757.000; -662.000
215.915;   -8.625;   -5.000;  -97.000
216.060;    3.150; -113.000;  -21.000
216.205;  -95.600; -731.000; -779.000
216.349;  -68.775; -470.000; -533.000
216.494; -122.575; -939.000; -867.000
216.639; -109.225; -823.000; -888.000
216.784;  -85.300; -577.000; -525.000
216.929;   47.425;  392.000;  281.000
217.073;   -7.200; -244.000;  -31.000
217.218;   12.825;   78.000;  -47.000
217.363;  -76.200; -656.000; -618.000
217.507;  -75.850; -623.000; -588.000
217.652; -109.650; -845.000; -874.000
217.797;  -83.300; -708.000; -659.000
217.942;  -95.800; -856.000; -720.000
218.086;   69.350;  608.000;  539.000
218.231;  -19.925; -174.000;  -26.000
218.376;  -26.200; -337.000; -229.000
218.520;   12.725;  -41.000;   96.000
218.665;  -45.225; -338.000; -204.000
218.810;  -28.400; -275.000; -233.000
218.954;   15.000;  201.000;   35.000
219.099; -103.550; -713.000; -963.000
219.243;  -68.450; -589.000; -554.000
219.388;  -13.650; -264.000; -136.000
219.532;   -3.400; -116.000; -116.000
219.677;  -67.700; -564.000; -521.000
219.822;   -0.225;   33.000;   89.000
219.966;   -9.800;   17.000;  -99.000
220.111;  -37.500; -328.000;  -40.000
220.255;  -75.550; -797.000; -750.000
220.400;  -23.775; -180.000; -146.000
220.544;  -65.600; -516.000; -450.000
220.689;  -52.150; -422.000; -451.000
220.833;   -7.150; -123.000;  -58.000
220.978;  -34.300; -393.000; -563.000
221.122;   11.275;  319.000;  307.000
221.267; -109.550; -906.000; -837.000
221.411;  -68.300; -478.000; -394.000
221.555;  -14.250; -104.000;  -23.000
221.700;  -42.450; -329.000; -222.000
221.844;   34.600;  255.000;  272.000
221.989;  -42.975; -328.000; -311.000
222.133;  -50.475; -289.000; -307.000
222.277;  -11.250;    5.000;   78.000
222.422;   20.400;  227.000;  113.000
222.566;  -35.525; -381.000; -214.000
222.711;  -60.850; -414.000; -479.000
222.855;  -81.625; -643.000; -586.000
222.999;  -70.975; -642.000; -717.000
223.144;  -23.525; -195.000; -194.000
223.288;   48.700;  423.000;  251.000
223.432;   26.100;  184.000;  230.000
223.576;   17.025;  152.000;  -21.000
223.721;   33.975;  364.000;  273.000
223.865;  -59.650; -472.000; -475.000
224.009;  246.100; 1673.000; 1631.000
224.153;  -74.900; -660.000; -671.000
224.298;  -56.600; -531.000; -489.000
224.442;  -11.150;  -74.000;  -33.000
224.586;  -13.975; -169.000; -106.000
224.730;  -90.525; -858.000; -670.000
224.875;  -96.775; -739.000; -688.000
225.019;    3.050;  102.000;  188.000
225.163;   58.550;  208.000;  341.000
225.307;   20.375;   97.000;  -91.000
225.451;   45.725;  360.000;  481.000
225.595;   14.875;  264.000;  176.000
225.739;  -27.175; -170.000;  -94.000
225.884;   -2.100;   86.000;    5.000
226.028;  -90.950; -760.000; -626.000
226.172;  -31.000; -260.000; -273.000
226.316; -112.200; -941.000; -902.000
226.460;  -64.875; -645.000; -493.000
226.604;  -48.050; -406.000; -400.000
226.748;  -98.350; -836.000; -733.000
226.892;  -36.000; -227.000; -181.000
227.036;  -59.050; -537.000; -447.000
227.180;  -42.500; -551.000; -375.000
227.324;  -57.025; -561.000; -580.000
227.468;  -97.425; -819.000; -717.000
227.612;    9.350;  242.000;  -28.000
227.756;  -88.300; -845.000; -698.000
227.900;   39.325;  342.000;  441.000
228.044;  -39.600; -509.000; -290.000
228.188;   50.425;  448.000;  568.000
228.332;  -79.650; -546.000; -472.000
228.476;  -32.100; -223.000; -149.000
228.620;  -28.250; -210.000; -150.000
228.764;   62.475;  431.000;  349.000
228.908;  -21.275; -155.000;   30.000
229.052;  -60.775; -615.000; -528.000
229.195;  -10.650; -172.000;   13.000
229.339;  -27.025; -235.000; -305.000
229.483;  -22.575;    5.000; -162.000
229.627;    2.125; -156.000;  139.000
229.771;  -35.725; -218.000; -294.000
229.915;    2.500;  230.000;   79.000
230.059;  -75.450; -648.000; -663.000
230.202;  -43.750; -370.000; -317.000
230.346;  -16.375; -107.000;  107.000
230.490;  -64.125; -489.000; -521.000
230.634;  -99.100; -736.000; -553.000
230.777;   80.100;  478.000;  509.000
230.921;  -53.350; -450.000; -359.000
231.065;  -29.250; -246.000; -286.000
231.209;   34.325;  261.000;  265.000
231.352;   10.625;   54.000;   40.000
231.496;   18.250;  568.000;  188.000
231.640;  -69.000; -693.000; -621.000
231.783;   65.500;  546.000;  525.000
231.927;  -46.925; -294.000; -365.000
232.071;  -99.400; -962.000; -736.000
232.214; -101.575; -980.000; -764.000
232.358;  -96.600; -683.000; -599.000
232.502;   -4.400;  -19.000;    7.000
232.645; -131.675;-1090.000; -927.000
232.789;  -33.325; -257.000; -218.000
232.933;  -37.975; -407.000; -224.000
233.076; -112.625;-1038.000; -897.000
233.220;  -94.750; -752.000; -777.000
233.363;  -77.025; -669.000; -477.000
233.507;   43.850;  371.000;  129.000
233.650; -107.725; -764.000; -834.000
233.794;   40.575;  438.000;  461.000
233.938;  -70.575; -530.000; -362.000
234.081;  -18.900;  -93.000;   31.000
234.225;  -65.650; -631.000; -539.000
234.368;  -92.000; -773.000; -723.000
234.512;  -47.075; -385.000; -299.000
234.655;  -78.025; -582.000; -555.000
234.798;  -80.325; -493.000; -466.000
234.942; -117.250; -884.000;-1002.000
235.085;  -68.325; -651.000; -443.000
235.229;  -69.175; -405.000; -410.000
235.372;  -57.075; -247.000; -191.000
235.516;  -47.100; -397.000; -321.000
235.659;   22.800;   92.000;  121.000
235.802;   -8.425;  -38.000;  -22.000
235.946;   33.775;  335.000;  215.000
236.089;   20.850;  126.000;  250.000
236.233;   36.050;  275.000;  298.000
236.376;  -41.050; -235.000; -378.000
236.519;  -36.950; -297.000; -319.000
236.663;  -29.300; -215.000; -117.000
236.806; -124.275;-1029.000; -999.000
236.949;   52.625;  543.000;  431.000
237.092;   52.475;  412.000;  391.000
237.236;  -75.300; -589.000; -502.000
237.379;   64.575;  352.000;  428.000
237.522; -116.400; -879.000; -768.000
237.666;  -14.625; -271.000;   18.000
237.809; -103.200; -851.000; -823.000
237.952;   22.175;  469.000;  271.000
238.095;  -50.000; -447.000; -442.000
238.238;   67.550;  688.000;  700.000
238.382;    1.475;  166.000;  103.000
238.525;  -65.275; -598.000; -511.000
238.668; -125.000;-1060.000; -985.000
238.811;  -88.025; -638.000; -643.000
238.954;  -61.525; -483.000; -334.000
239.097;   91.525;  617.000;  664.000
239.241;   20.625;  394.000;  326.000
239.384;  -27.175; -254.000; -214.000
239.527;  -59.350; -424.000; -224.000
239.670; -141.350; -994.000;-1091.000
239.813; -101.125; -696.000; -658.000
239.956;   64.675;  579.000;  473.000
240.099;  -90.350; -778.000; -725.000
240.242;   61.075;  428.000;  432.000
240.385;   36.650;  466.000;  450.000
240.528;  -74.700; -706.000; -473.000
240.671;   18.000;  189.000;  134.000
240.814;  -41.475; -441.000; -158.000
240.957;  -86.600; -767.000; -578.000
241.100;  -85.325; -779.000; -755.000
241.243; -142.000;-1234.000; -893.000
241.386;  -53.500; -508.000; -379.000
241.529;  -67.375; -735.000; -547.000
241.672;  -70.375; -566.000; -495.000
241.815; -111.025; -832.000; -808.000
241.958;  -22.000; -125.000; -182.000
242.101;  -68.525; -545.000; -390.000
242.244;  -47.775; -270.000; -325.000
242.387;  -32.525; -304.000; -246.000
242.530;   51.200;  470.000;  134.000
242.673;  -49.350; -381.000; -309.000
242.815; -107.525; -925.000; -899.000
242.958;  -60.425; -482.000; -381.000
243.101;   16.675;  132.000;  187.000
243.244;  -66.375; -564.000; -521.000
243.387;  -42.500; -313.000; -316.000
243.530;  -95.550; -657.000; -674.000
243.672;   -9.100;   43.000;  -92.000
243.815;  -41.450; -355.000; -283.000
243.958;    0.825;   98.000;  -26.000
244.101;   -3.875;   59.000;  -16.000
244.243;  -19.825;  -47.000;  101.000
244.386; -100.200; -761.000; -630.000
244.529;  -21.500; -132.000; -139.000
244.672; -136.275;-1154.000; -951.000
244.814; -101.225; -621.000; -794.000
244.957;  -46.950; -380.000; -304.000
245.100;  -74.175; -489.000; -489.000
245.242;  -76.475; -387.000; -374.000
245.385;   -7.000;  -59.000;  -39.000
245.528; -100.700; -871.000; -705.000
245.670;   93.575;  612.000;  634.000
245.813;  -94.350; -599.000; -547.000
245.956;  -39.700; -324.000; -275.000
246.098;  -66.500; -508.000; -650.000
246.241;    6.225;  194.000;   48.000
246.383;  -22.825; -119.000;  -73.000
246.526;  -65.075; -454.000; -525.000
246.669; -113.300; -889.000; -780.000
246.811;   13.975;  172.000;   -1.000
246.954;  -61.725; -512.000; -426.000
247.096;  -24.025;  -84.000;   -6.000
247.239;  -56.800; -482.000; -445.000
247.381;  -76.475; -647.000; -488.000
247.524;   63.900;  645.000;  679.000
247.666;   -6.125;   58.000;   11.000
247.809; -112.775; -887.000; -691.000
247.951;  -10.325;  -75.000;  138.000
248.094;   20.275;  432.000;  308.000
248.236; -150.000;-1262.000;-1238.000
248.378;  -27.675; -356.000;  -81.000
248.521;  -41.600; -334.000; -337.000
248.663;  -46.650; -236.000; -267.000
248.806;  -35.350; -300.000; -266.000
248.948;  -99.075; -886.000; -763.000
249.090;  -57.050; -428.000; -398.000
249.233;  -64.050; -344.000; -381.000
249.375;  -68.225; -474.000; -451.000
249.518;  -26.350;  -83.000; -133.000
249.660;  -22.525; -103.000;    3.000
249.802; -169.000;-1303.000;-1189.000
249.945;  -73.100; -612.000; -540.000
250.087;  -97.875; -834.000; -768.000
250.229;  -49.325; -362.000; -480.000
250.371;  -67.200; -494.000; -439.000
250.514;  -53.650; -310.000; -244.000
250.656;   -8.200;   69.000;  102.000
250.798; -118.275; -849.000; -800.000
250.940;  -51.275; -322.000; -322.000
251.083;  -27.125; -335.000; -111.000
251.225;   53.125;  338.000;  310.000
251.367;  -43.425; -274.000; -373.000
251.509;  -34.775; -265.000; -210.000
251.651;  -88.525; -731.000; -671.000
251.794;   48.375;  538.000;  632.000
251.936; -106.075; -821.000; -747.000
252.078;  -71.450; -540.000; -461.000
252.220;  -65.800; -645.000; -477.000
252.362;   48.675;  344.000;  462.000
252.504;  -86.400; -677.000; -584.000
252.646; -106.475; -875.000; -722.000
252.788;  -17.575;   14.000; -128.000
252.931;  -54.650; -257.000; -253.000
253.073;  -37.200; -376.000; -317.000
253.215;   -8.375;  141.000;  122.000
253.357;  -15.875;   82.000; -153.000
253.499;  -50.075; -374.000; -234.000
253.641;  -95.775; -749.000; -594.000
253.783;  -78.900; -609.000; -527.000
253.925;  -85.625; -586.000; -591.000
254.067;  -96.050; -744.000; -667.000
254.209;  -30.525; -391.000; -259.000
254.351; -127.475; -865.000; -883.000
254.493;  -63.600; -441.000; -417.000
254.635; -115.275; -936.000; -818.000
254.777;  -88.000; -752.000; -687.000
254.918;  -66.025; -512.000; -430.000
255.060;  -68.250; -551.000; -395.000
255.202;  -52.750; -473.000; -261.000
255.344;  -76.225; -658.000; -455.000
255.486;  -56.625; -471.000; -406.000
255.628; -109.800; -780.000; -781.000
255.770;  -85.450; -676.000; -536.000
255.912;  -68.950; -559.000; -468.000
256.053;  -80.075; -730.000; -508.000
256.195;  151.825; 1008.000;  903.000
256.337;  -88.675; -861.000; -595.000
256.479;   50.225;  532.000;  416.000
256.621;  -43.600; -394.000; -212.000
256.762;  -77.950; -789.000; -742.000
256.904;   46.150;  485.000;  487.000
257.046;  -49.550; -381.000; -271.000
257.188;  -36.100; -351.000; -264.000
257.329;  -69.225; -525.000; -464.000
257.471; -111.375; -939.000; -807.000
257.613;  -74.900; -584.000; -498.000
257.755; -139.075;-1073.000; -982.000
257.896;   30.025;  286.000;  392.000
258.038;  -68.100; -403.000; -352.000
258.180;  -43.775; -354.000; -279.000
258.321;  -67.575; -581.000; -457.000
258.463;   -2.000;  -71.000;  133.000
258.605;  -80.800; -562.000; -570.000
258.746; -100.850; -886.000; -772.000
258.888; -135.350;-1026.000;-1020.000
259.029;   11.225;  121.000;   -8.000
259.171;  -90.550; -614.000; -550.000
259.313;   -3.575;  -49.000;  -47.000
259.454;  -67.750; -536.000; -414.000
259.596;  -55.550; -483.000; -390.000
259.737;  -67.150; -590.000; -474.000
259.879;   40.375;  217.000;  311.000
260.020;   79.600;  901.000;  636.000
260.162;  -33.400; -146.000; -253.000
260.303;  -93.025; -768.000; -687.000
260.445;  -81.125; -609.000; -613.000
260.586;   22.250;  392.000;  157.000
260.728;  -47.450; -360.000; -248.000
260.869;  -62.225; -350.000; -343.000
261.011;   64.300;  706.000;  537.000
261.152;  -55.225; -479.000; -319.000
261.293;  -82.700; -576.000; -595.000
261.435;  -20.775; -219.000; -184.000
261.576;  -44.300; -455.000; -325.000
261.718;   49.650;  420.000;  470.000
261.859; -128.425; -940.000; -949.000
262.000; -117.575; -951.000;-1016.000
262.142;  -20.425;  -52.000;  -60.000
262.283;  -98.925; -808.000; -691.000
262.424;  -83.675; -666.000; -625.000
262.566; -127.900;-1161.000; -983.000
262.707; -109.750; -840.000; -830.000
262.848; -113.950; -769.000; -726.000
262.990;  -35.375; -362.000; -345.000
263.131;   64.025;  650.000;  681.000
263.272;  -16.100;  -61.000;  -41.000
263.413;  -79.825; -589.000; -561.000
263.555;  -65.025; -669.000; -143.000
263.696;  -84.225; -550.000; -641.000
263.837;  -60.925; -449.000; -551.000
263.978;   -4.625;   -5.000;  -77.000
264.119;  -42.250; -283.000; -264.000
264.261; -110.300; -847.000; -630.000
264.402;  -10.225;   33.000;   40.000
264.543;  -63.950; -509.000; -524.000
264.684;  -13.925;   61.000;  -50.000
264.825;  -63.025; -816.000; -538.000
264.966;  -15.550;  -84.000;  -67.000
265.107; -103.850; -646.000; -670.000
265.248; -107.425; -825.000; -812.000
265.390;  -17.775;  152.000;   -9.000
265.531;  -26.250; -238.000; -107.000
265.672;  -74.900; -557.000; -630.000
265.813;   47.975;  563.000;  439.000
265.954; -126.750; -959.000; -940.000
266.095;  -13.175; -372.000; -322.000
266.236;  -77.650; -686.000; -548.000
266.377;  -44.000; -243.000; -297.000
266.518;  -57.675; -619.000; -547.000
266.659;   17.350;  170.000;  268.000
266.800;    4.550;   83.000;   85.000
266.941;  -81.500; -487.000; -478.000
267.082;   25.575;  354.000;   99.000
267.223;  -40.925; -344.000; -273.000
267.364;  -90.800; -892.000; -686.000
267.504;  -18.700;    3.000;  135.000
267.645;   13.275;  160.000;   67.000
267.786;  -29.975; -147.000;  -86.000
267.927;  -68.775; -473.000; -379.000
268.068;  -26.750; -186.000;  -61.000
268.209;  -45.100; -175.000; -413.000
268.350;  -48.500; -388.000; -532.000
268.490;  -82.600; -648.000; -521.000
268.631;   23.450;  127.000;  225.000
268.772; -102.600; -874.000; -647.000
268.913;  -40.400; -328.000; -476.000
269.054;   -9.675; -117.000;   12.000
269.194;  -56.925; -418.000; -402.000
269.335; -150.350;-1137.000;-1074.000
269.476;  -12.800;   33.000;  -35.000
269.617;  -34.925; -347.000; -392.000
269.757;  -94.150; -713.000; -646.000
269.898;  -99.975; -856.000; -613.000
270.039;  -62.325; -415.000; -405.000
270.180; -124.700; -952.000; -816.000
270.320;  -31.675; -190.000; -250.000
