
Integration time [ms]: 100.000
Averaging Nr. [scans]: 40
Smoothing Nr. [pixels]: 0
Data measured with spectrometer [name]: 2101012U2
Wave   ;Sample   ;Dark     ;Reference
[nm]   ;[counts] ;[counts] ;[counts] 

197.733;   60.650;  516.000;  404.000
197.879;  -84.675; -610.000; -634.000
198.025;  -42.925; -475.000; -420.000
198.171;  -84.200; -602.000; -612.000
198.317;  -32.300; -401.000; -316.000
198.463;  -68.450; -655.000; -404.000
198.609;   31.225;  181.000; -137.000
198.755;  -81.600; -644.000; -410.000
198.901;  -73.875; -505.000; -424.000
199.047;  -64.700; -615.000; -488.000
199.193;  -47.225; -230.000; -468.000
199.339;  -42.025; -222.000; -369.000
199.485;   47.825;  330.000;  271.000
199.631;    8.550;  227.000;  310.000
199.777;  -53.050; -466.000; -398.000
199.923;  -73.475; -610.000; -424.000
200.069;   -2.950; -141.000;  -58.000
200.215;   52.900;  128.000;  453.000
200.361;   49.975;  243.000;  477.000
200.507;  -58.375; -600.000; -373.000
200.653;  -32.650; -371.000; -194.000
200.798;  -30.625; -215.000; -125.000
200.944;   -8.475; -146.000;  -41.000
201.090;   33.200;   61.000;  222.000
201.236;   -0.250; -116.000; -158.000
201.382;  125.275;  874.000;  903.000
201.528;    4.600;  -58.000;  -48.000
201.674;  -58.450; -386.000; -293.000
201.819;  -66.700; -540.000; -439.000
201.965;  -99.975; -699.000; -447.000
202.111;  -26.500; -273.000; -226.000
202.257;  -32.600; -250.000; -238.000
202.402;    4.250;   13.000;  -36.000
202.548;  -40.525; -169.000; -116.000
202.694;   93.600;  410.000; -183.000
202.840;  -71.950; -603.000; -531.000
202.985;  -81.750; -681.000; -639.000
203.131; -117.725; -832.000; -666.000
203.277;  -32.025; -199.000; -262.000
203.423;  -59.525; -434.000; -520.000
203.568;  -31.975; -462.000; -237.000
203.714;  -60.700; -535.000; -542.000
203.860;  -85.225; -682.000; -641.000
204.005;    9.975;  112.000;  167.000
204.151;   71.775;  561.000;  556.000
204.296;  -50.025; -354.000; -221.000
204.442;  -80.400; -600.000; -547.000
204.588;  -78.675; -592.000; -579.000
204.733;   26.525;  178.000;  168.000
204.879; -137.675;-1018.000; -822.000
205.025;    7.200;  -99.000;  126.000
205.170;   -3.950;  -17.000;   94.000
205.316;   85.275;  438.000;  661.000
205.461;  -82.475; -698.000; -554.000
205.607;   83.700;  609.000;  665.000
205.752;  -81.050; -626.000; -551.000
205.898;  -60.675; -501.000; -391.000
206.043;  -64.075; -578.000; -506.000
206.189;  -41.150; -243.000; -285.000
206.334;   71.100;  554.000;  606.000
206.480;   73.550;  409.000;  239.000
206.625;  -92.550; -529.000; -552.000
206.771;  -48.375; -451.000; -373.000
206.916;  -37.350; -210.000; -537.000
207.062;  -72.825; -545.000; -591.000
207.207;  -67.025; -546.000; -443.000
207.353;   48.700;  185.000;  460.000
207.498;    0.525;  196.000;   85.000
207.643;  -44.750; -501.000; -370.000
207.789; -149.275;-1069.000; -910.000
207.934;  -98.225; -665.000; -713.000
208.080;  -27.650; -154.000;   66.000
208.225;   -2.200;  -22.000;  -57.000
208.370;  -74.550; -727.000; -619.000
208.516;  -68.575; -741.000; -487.000
208.661;  -45.550; -127.000;  -69.000
208.806;  -26.175; -165.000; -171.000
208.952; -134.450;-1044.000; -731.000
209.097;   73.825;  378.000;  349.000
209.242;  -52.700; -307.000; -382.000
209.387;   64.675;  392.000;  350.000
209.533;  -55.000; -321.000; -350.000
209.678;   81.050;  472.000;  543.000
209.823;  -53.175; -408.000; -310.000
209.969; -105.250; -860.000; -757.000
210.114; -112.175; -907.000; -719.000
210.259; -124.600; -939.000; -889.000
210.404;  -27.525; -171.000;  103.000
210.549;   -2.425;  108.000;    3.000
210.695;  -22.175;   -3.000;  -95.000
210.840;   32.150;   94.000;   67.000
210.985;  -74.650; -484.000; -303.000
211.130;   72.725;  268.000;  406.000
211.275;    5.125;  207.000;  199.000
211.420;  -56.250; -300.000; -289.000
211.566;  -77.950; -536.000; -489.000
211.711;   18.650;  218.000;  157.000
211.856;  -63.925; -545.000; -519.000
212.001;    8.850;  151.000;   44.000
212.146;   24.850;  153.000;   49.000
212.291;  -28.350; -210.000; -186.000
212.436;  -39.950; -280.000;   -6.000
212.581;  -77.200; -685.000; -653.000
212.726;  -78.550; -487.000; -538.000
212.871;  -51.475; -552.000; -217.000
213.016; -138.975;-1172.000;-1029.000
213.161;   42.625;  406.000;  291.000
213.306;  -83.400; -435.000; -577.000
213.451;  -98.950; -778.000; -689.000
213.596;  -44.750; -455.000; -347.000
213.741;  -54.375; -448.000; -538.000
213.886;  -89.350; -498.000; -517.000
214.031;  -13.150; -294.000; -124.000
214.176;  -58.050; -408.000; -341.000
214.321;  -26.425; -296.000; -157.000
214.466;  -34.650; -163.000;  -43.000
214.611;  -11.075;  -61.000;  -10.000
214.756; -114.900; -948.000; -858.000
214.901;  -23.650; -388.000; -226.000
215.046; -120.600; -797.000; -825.000
215.191;   17.125;  128.000;   35.000
215.336;  -19.425; -157.000;  -19.000
215.480;  -68.750; -684.000; -505.000
215.625;  -26.125; -175.000;  -19.000
215.770;  -93.075; -757.000; -662.000
215.915;  -22.575;   -5.000;  -97.000
216.060;  -15.500; -113.000;  -21.000
216.205; -112.950; -731.000; -779.000
216.349;  -72.850; -470.000; -533.000
216.494; -134.550; -939.000; -867.000
216.639; -115.400; -823.000; -888.000
216.784;  -87.850; -577.000; -525.000
216.929;   43.300;  392.000;  281.000
217.073;  -13.425; -244.000;  -31.000
217.218;    6.925;   78.000;  -47.000
217.363;  -96.900; -656.000; -618.000
217.507;  -87.650; -623.000; -588.000
217.652; -140.275; -845.000; -874.000
217.797;  -87.300; -708.000; -659.000
217.942; -116.550; -856.000; -720.000
218.086;   74.075;  608.000;  539.000
218.231;  -28.550; -174.000;  -26.000
218.376;  -39.650; -337.000; -229.000
218.520;  -12.100;  -41.000;   96.000
218.665;  -35.425; -338.000; -204.000
218.810;  -58.575; -275.000; -233.000
218.954;   23.425;  201.000;   35.000
219.099; -127.750; -713.000; -963.000
219.243;  -78.800; -589.000; -554.000
219.388;  -31.750; -264.000; -136.000
219.532;  -13.900; -116.000; -116.000
219.677;  -76.275; -564.000; -521.000
219.822;    2.625;   33.000;   89.000
219.966;   -2.725;   17.000;  -99.000
220.111;  -37.075; -328.000;  -40.000
220.255;  -95.100; -797.000; -750.000
220.400;  -21.800; -180.000; -146.000
220.544;  -76.725; -516.000; -450.000
220.689;  -47.000; -422.000; -451.000
220.833;   -8.275; -123.000;  -58.000
220.978;  -43.625; -393.000; -563.000
221.122;    6.675;  319.000;  307.000
221.267; -133.775; -906.000; -837.000
221.411;  -81.125; -478.000; -394.000
221.555;  -13.475; -104.000;  -23.000
221.700;  -55.250; -329.000; -222.000
221.844;   32.050;  255.000;  272.000
221.989;  -47.600; -328.000; -311.000
222.133;  -37.700; -289.000; -307.000
222.277;  -10.950;    5.000;   78.000
222.422;   11.250;  227.000;  113.000
222.566;  -58.000; -381.000; -214.000
222.711;  -58.975; -414.000; -479.000
222.855;  -87.700; -643.000; -586.000
222.999;  -88.250; -642.000; -717.000
223.144;  -34.500; -195.000; -194.000
223.288;   43.925;  423.000;  251.000
223.432;   12.850;  184.000;  230.000
223.576;    8.850;  152.000;  -21.000
223.721;   44.575;  364.000;  273.000
223.865;  -54.775; -472.000; -475.000
224.009;  267.500; 1673.000; 1631.000
224.153;  -78.975; -660.000; -671.000
224.298;  -71.800; -531.000; -489.000
224.442;   -3.825;  -74.000;  -33.000
224.586;  -14.975; -169.000; -106.000
224.730;  -97.125; -858.000; -670.000
224.875; -116.250; -739.000; -688.000
225.019;    3.400;  102.000;  188.000
225.163;   46.850;  208.000;  341.000
225.307;   23.125;   97.000;  -91.000
225.451;   52.325;  360.000;  481.000
225.595;   24.025;  264.000;  176.000
225.739;  -38.925; -170.000;  -94.000
225.884;    7.300;   86.000;    5.000
226.028; -109.625; -760.000; -626.000
226.172;  -36.525; -260.000; -273.000
226.316; -128.150; -941.000; -902.000
226.460;  -75.200; -645.000; -493.000
226.604;  -62.325; -406.000; -400.000
226.748; -105.575; -836.000; -733.000
226.892;  -45.025; -227.000; -181.000
227.036;  -50.350; -537.000; -447.000
227.180;  -55.575; -551.000; -375.000
227.324;  -77.775; -561.000; -580.000
227.468; -132.400; -819.000; -717.000
227.612;    0.250;  242.000;  -28.000
227.756; -118.525; -845.000; -698.000
227.900;   47.150;  342.000;  441.000
228.044;  -65.750; -509.000; -290.000
228.188;   58.000;  448.000;  568.000
228.332;  -89.600; -546.000; -472.000
228.476;  -21.300; -223.000; -149.000
228.620;  -47.450; -210.000; -150.000
228.764;   66.950;  431.000;  349.000
228.908;  -25.925; -155.000;   30.000
229.052;  -77.000; -615.000; -528.000
229.195;  -23.725; -172.000;   13.000
229.339;  -26.925; -235.000; -305.000
229.483;  -35.875;    5.000; -162.000
229.627;  -20.400; -156.000;  139.000
229.771;  -62.775; -218.000; -294.000
229.915;   10.050;  230.000;   79.000
230.059;  -87.450; -648.000; -663.000
230.202;  -32.900; -370.000; -317.000
230.346;  -24.425; -107.000;  107.000
230.490;  -62.925; -489.000; -521.000
230.634; -106.675; -736.000; -553.000
230.777;   62.450;  478.000;  509.000
230.921;  -75.425; -450.000; -359.000
231.065;  -49.175; -246.000; -286.000
231.209;   14.975;  261.000;  265.000
231.352;   19.450;   54.000;   40.000
231.496;   10.175;  568.000;  188.000
231.640;  -89.925; -693.000; -621.000
231.783;   55.475;  546.000;  525.000
231.927;  -59.475; -294.000; -365.000
232.071; -124.650; -962.000; -736.000
232.214; -111.475; -980.000; -764.000
232.358; -112.150; -683.000; -599.000
232.502;   -2.375;  -19.000;    7.000
232.645; -138.600;-1090.000; -927.000
232.789;  -24.400; -257.000; -218.000
232.933;  -48.525; -407.000; -224.000
233.076; -122.700;-1038.000; -897.000
233.220; -112.125; -752.000; -777.000
233.363;  -84.100; -669.000; -477.000
233.507;   52.150;  371.000;  129.000
233.650; -110.350; -764.000; -834.000
233.794;   45.750;  438.000;  461.000
233.938;  -66.000; -530.000; -362.000
234.081;  -20.975;  -93.000;   31.000
234.225;  -81.275; -631.000; -539.000
234.368; -131.550; -773.000; -723.000
234.512;  -51.050; -385.000; -299.000
234.655;  -99.275; -582.000; -555.000
234.798;  -64.375; -493.000; -466.000
234.942; -126.600; -884.000;-1002.000
235.085;  -75.575; -651.000; -443.000
235.229;  -78.100; -405.000; -410.000
235.372;  -54.775; -247.000; -191.000
235.516;  -64.200; -397.000; -321.000
235.659;   11.900;   92.000;  121.000
235.802;  -23.900;  -38.000;  -22.000
235.946;   25.275;  335.000;  215.000
236.089;    6.575;  126.000;  250.000
236.233;   47.425;  275.000;  298.000
236.376;  -73.000; -235.000; -378.000
236.519;  -55.950; -297.000; -319.000
236.663;  -34.225; -215.000; -117.000
236.806; -151.650;-1029.000; -999.000
236.949;   45.075;  543.000;  431.000
237.092;   45.625;  412.000;  391.000
237.236;  -90.600; -589.000; -502.000
237.379;   58.450;  352.000;  428.000
237.522; -125.675; -879.000; -768.000
237.666;  -24.450; -271.000;   18.000
237.809; -141.125; -851.000; -823.000
237.952;   30.700;  469.000;  271.000
238.095;  -80.125; -447.000; -442.000
238.238;   82.825;  688.000;  700.000
238.382;  -13.000;  166.000;  103.000
238.525;  -75.350; -598.000; -511.000
238.668; -152.450;-1060.000; -985.000
238.811;  -91.725; -638.000; -643.000
238.954;  -75.700; -483.000; -334.000
239.097;   99.250;  617.000;  664.000
239.241;   30.100;  394.000;  326.000
239.384;  -25.350; -254.000; -214.000
239.527;  -71.150; -424.000; -224.000
239.670; -153.750; -994.000;-1091.000
239.813; -126.625; -696.000; -658.000
239.956;   65.825;  579.000;  473.000
240.099; -120.900; -778.000; -725.000
240.242;   59.775;  428.000;  432.000
240.385;   53.175;  466.000;  450.000
240.528;  -80.650; -706.000; -473.000
240.671;   11.025;  189.000;  134.000
240.814;  -59.575; -441.000; -158.000
240.957; -106.150; -767.000; -578.000
241.100; -103.000; -779.000; -755.000
241.243; -159.100;-1234.000; -893.000
241.386;  -65.625; -508.000; -379.000
241.529;  -93.775; -735.000; -547.000
241.672;  -66.550; -566.000; -495.000
241.815; -126.000; -832.000; -808.000
241.958;  -29.400; -125.000; -182.000
242.101;  -87.875; -545.000; -390.000
242.244;  -41.225; -270.000; -325.000
242.387;  -48.950; -304.000; -246.000
242.530;   59.525;  470.000;  134.000
242.673;  -52.275; -381.000; -309.000
242.815; -122.225; -925.000; -899.000
242.958;  -74.950; -482.000; -381.000
243.101;   17.350;  132.000;  187.000
243.244;  -93.225; -564.000; -521.000
243.387;  -54.225; -313.000; -316.000
243.530;  -97.325; -657.000; -674.000
243.672;    1.475;   43.000;  -92.000
243.815;  -72.125; -355.000; -283.000
243.958;   -4.275;   98.000;  -26.000
244.101;   -3.525;   59.000;  -16.000
244.243;  -22.750;  -47.000;  101.000
244.386; -116.550; -761.000; -630.000
244.529;  -22.550; -132.000; -139.000
244.672; -166.850;-1154.000; -951.000
244.814; -105.125; -621.000; -794.000
244.957;  -48.500; -380.000; -304.000
245.100;  -75.250; -489.000; -489.000
245.242;  -74.600; -387.000; -374.000
245.385;  -17.400;  -59.000;  -39.000
245.528; -116.675; -871.000; -705.000
245.670;   81.475;  612.000;  634.000
245.813;  -99.725; -599.000; -547.000
245.956;  -32.650; -324.000; -275.000
246.098;  -88.050; -508.000; -650.000
246.241;   -3.050;  194.000;   48.000
246.383;  -16.125; -119.000;  -73.000
246.526;  -63.500; -454.000; -525.000
246.669; -116.250; -889.000; -780.000
246.811;    8.225;  172.000;   -1.000
246.954;  -66.725; -512.000; -426.000
247.096;  -20.875;  -84.000;   -6.000
247.239;  -83.025; -482.000; -445.000
247.381;  -71.500; -647.000; -488.000
247.524;   82.850;  645.000;  679.000
247.666;  -17.550;   58.000;   11.000
247.809; -118.425; -887.000; -691.000
247.951;   -2.850;  -75.000;  138.000
248.094;   25.525;  432.000;  308.000
248.236; -150.625;-1262.000;-1238.000
248.378;    4.900; -356.000;  -81.000
248.521;  -20.125; -334.000; -337.000
248.663;  -43.300; -236.000; -267.000
248.806;  -20.200; -300.000; -266.000
248.948;  -95.750; -886.000; -763.000
249.090;  -47.350; -428.000; -398.000
249.233;  -62.400; -344.000; -381.000
249.375;  -59.950; -474.000; -451.000
249.518;  -33.650;  -83.000; -133.000
249.660;   -6.775; -103.000;    3.000
249.802; -172.725;-1303.000;-1189.000
249.945;  -88.825; -612.000; -540.000
250.087; -126.000; -834.000; -768.000
250.229;  -39.300; -362.000; -480.000
250.371;  -81.975; -494.000; -439.000
250.514;  -55.950; -310.000; -244.000
250.656;  -18.500;   69.000;  102.000
250.798; -124.250; -849.000; -800.000
250.940;  -74.750; -322.000; -322.000
251.083;  -32.025; -335.000; -111.000
251.225;   63.500;  338.000;  310.000
251.367;  -44.525; -274.000; -373.000
251.509;  -43.625; -265.000; -210.000
251.651; -104.025; -731.000; -671.000
251.794;   78.000;  538.000;  632.000
251.936; -116.575; -821.000; -747.000
252.078;  -78.800; -540.000; -461.000
252.220;  -81.675; -645.000; -477.000
252.362;   85.175;  344.000;  462.000
252.504;  -77.375; -677.000; -584.000
252.646; -116.575; -875.000; -722.000
252.788;   -5.700;   14.000; -128.000
252.931;  -48.600; -257.000; -253.000
253.073;  -41.500; -376.000; -317.000
253.215;    5.600;  141.000;  122.000
253.357;  -27.800;   82.000; -153.000
253.499;  -60.575; -374.000; -234.000
253.641;  -86.825; -749.000; -594.000
253.783; -109.775; -609.000; -527.000
253.925;  -87.800; -586.000; -591.000
254.067; -119.275; -744.000; -667.000
254.209;  -32.200; -391.000; -259.000
254.351; -142.625; -865.000; -883.000
254.493;  -84.150; -441.000; -417.000
254.635; -132.925; -936.000; -818.000
254.777;  -95.700; -752.000; -687.000
254.918;  -70.200; -512.000; -430.000
255.060;  -59.925; -551.000; -395.000
255.202;  -57.000; -473.000; -261.000
255.344;  -86.650; -658.000; -455.000
255.486;  -69.625; -471.000; -406.000
255.628; -112.150; -780.000; -781.000
255.770;  -94.275; -676.000; -536.000
255.912;  -71.000; -559.000; -468.000
256.053;  -94.950; -730.000; -508.000
256.195;  159.550; 1008.000;  903.000
256.337; -105.975; -861.000; -595.000
256.479;   52.975;  532.000;  416.000
256.621;  -52.050; -394.000; -212.000
256.762; -110.250; -789.000; -742.000
256.904;   46.100;  485.000;  487.000
257.046;  -44.050; -381.000; -271.000
257.188;  -49.025; -351.000; -264.000
257.329;  -79.550; -525.000; -464.000
257.471; -133.150; -939.000; -807.000
257.613;  -78.200; -584.000; -498.000
257.755; -157.400;-1073.000; -982.000
257.896;   36.100;  286.000;  392.000
258.038;  -71.575; -403.000; -352.000
258.180;  -41.725; -354.000; -279.000
258.321;  -95.625; -581.000; -457.000
258.463;   -3.975;  -71.000;  133.000
258.605;  -88.375; -562.000; -570.000
258.746; -115.275; -886.000; -772.000
258.888; -152.450;-1026.000;-1020.000
259.029;   16.500;  121.000;   -8.000
259.171;  -98.275; -614.000; -550.000
259.313;   -8.150;  -49.000;  -47.000
259.454;  -69.350; -536.000; -414.000
259.596;  -65.650; -483.000; -390.000
259.737;  -85.275; -590.000; -474.000
259.879;   38.650;  217.000;  311.000
260.020;   82.750;  901.000;  636.000
260.162;  -36.825; -146.000; -253.000
260.303; -131.900; -768.000; -687.000
260.445;  -87.575; -609.000; -613.000
260.586;   16.325;  392.000;  157.000
260.728;  -50.900; -360.000; -248.000
260.869;  -75.625; -350.000; -343.000
261.011;   88.675;  706.000;  537.000
261.152;  -75.000; -479.000; -319.000
261.293;  -81.950; -576.000; -595.000
261.435;  -22.800; -219.000; -184.000
261.576;  -68.575; -455.000; -325.000
261.718;   59.675;  420.000;  470.000
261.859; -131.875; -940.000; -949.000
262.000; -138.700; -951.000;-1016.000
262.142;  -13.050;  -52.000;  -60.000
262.283; -116.825; -808.000; -691.000
262.424;  -86.575; -666.000; -625.000
262.566; -156.725;-1161.000; -983.000
262.707; -112.400; -840.000; -830.000
262.848; -132.150; -769.000; -726.000
262.990;  -48.525; -362.000; -345.000
263.131;   82.375;  650.000;  681.000
263.272;   -5.825;  -61.000;  -41.000
263.413;  -99.925; -589.000; -561.000
263.555;  -84.700; -669.000; -143.000
263.696; -101.975; -550.000; -641.000
263.837;  -64.925; -449.000; -551.000
263.978;   -5.975;   -5.000;  -77.000
264.119;  -45.575; -283.000; -264.000
264.261; -125.525; -847.000; -630.000
264.402;  -12.900;   33.000;   40.000
264.543;  -81.500; -509.000; -524.000
264.684;  -15.200;   61.000;  -50.000
264.825;  -68.900; -816.000; -538.000
264.966;    1.850;  -84.000;  -67.000
265.107; -115.700; -646.000; -670.000
265.248; -115.100; -825.000; -812.000
265.390;  -13.375;  152.000;   -9.000
265.531;  -22.650; -238.000; -107.000
265.672;  -97.250; -557.000; -630.000
265.813;   79.200;  563.000;  439.000
265.954; -164.350; -959.000; -940.000
266.095;  -22.125; -372.000; -322.000
266.236; -111.150; -686.000; -548.000
266.377;  -51.300; -243.000; -297.000
266.518;  -67.725; -619.000; -547.000
266.659;   20.400;  170.000;  268.000
266.800;   -4.225;   83.000;   85.000
266.941;  -84.275; -487.000; -478.000
267.082;   23.150;  354.000;   99.000
267.223;  -47.425; -344.000; -273.000
267.364; -123.825; -892.000; -686.000
267.504;  -21.200;    3.000;  135.000
267.645;  -20.200;  160.000;   67.000
267.786;  -36.050; -147.000;  -86.000
267.927;  -67.975; -473.000; -379.000
268.068;  -17.575; -186.000;  -61.000
268.209;  -47.725; -175.000; -413.000
268.350;  -50.375; -388.000; -532.000
268.490;  -89.000; -648.000; -521.000
268.631;   34.225;  127.000;  225.000
268.772; -117.925; -874.000; -647.000
268.913;  -47.100; -328.000; -476.000
269.054;  -20.175; -117.000;   12.000
269.194;  -40.750; -418.000; -402.000
269.335; -154.975;-1137.000;-1074.000
269.476;   -3.925;   33.000;  -35.000
269.617;  -48.925; -347.000; -392.000
269.757;  -98.475; -713.000; -646.000
269.898; -110.200; -856.000; -613.000
270.039;  -58.375; -415.000; -405.000
270.180; -145.075; -952.000; -816.000
270.320;  -19.125; -190.000; -250.000
