
Integration time [ms]: 100.000
Averaging Nr. [scans]: 40
Smoothing Nr. [pixels]: 0
Data measured with spectrometer [name]: 2101012U2
Wave   ;Sample   ;Dark     ;Reference
[nm]   ;[counts] ;[counts] ;[counts] 

197.733;   54.950;  516.000;  404.000
197.879;  -85.075; -610.000; -634.000
198.025;  -44.075; -475.000; -420.000
198.171;  -65.000; -602.000; -612.000
198.317;  -35.900; -401.000; -316.000
198.463;  -58.250; -655.000; -404.000
198.609;   24.550;  181.000; -137.000
198.755;  -86.275; -644.000; -410.000
198.901;  -56.425; -505.000; -424.000
199.047;  -66.950; -615.000; -488.000
199.193;  -36.600; -230.000; -468.000
199.339;  -42.675; -222.000; -369.000
199.485;   47.400;  330.000;  271.000
199.631;   17.100;  227.000;  310.000
199.777;  -46.000; -466.000; -398.000
199.923;  -54.725; -610.000; -424.000
200.069;    2.175; -141.000;  -58.000
200.215;   55.600;  128.000;  453.000
200.361;   44.325;  243.000;  477.000
200.507;  -61.725; -600.000; -373.000
200.653;  -24.050; -371.000; -194.000
200.798;  -39.175; -215.000; -125.000
200.944;   13.775; -146.000;  -41.000
201.090;   26.950;   61.000;  222.000
201.236;    0.225; -116.000; -158.000
201.382;  129.675;  874.000;  903.000
201.528;   12.175;  -58.000;  -48.000
201.674;  -51.300; -386.000; -293.000
201.819;  -54.650; -540.000; -439.000
201.965;  -87.450; -699.000; -447.000
202.111;  -14.975; -273.000; -226.000
202.257;  -40.625; -250.000; -238.000
202.402;    9.375;   13.000;  -36.000
202.548;  -18.125; -169.000; -116.000
202.694;   87.200;  410.000; -183.000
202.840;  -81.625; -603.000; -531.000
202.985;  -63.925; -681.000; -639.000
203.131; -114.550; -832.000; -666.000
203.277;   -7.725; -199.000; -262.000
203.423;  -53.175; -434.000; -520.000
203.568;  -34.500; -462.000; -237.000
203.714;  -60.925; -535.000; -542.000
203.860;  -64.050; -682.000; -641.000
204.005;    6.525;  112.000;  167.000
204.151;   81.300;  561.000;  556.000
204.296;  -51.625; -354.000; -221.000
204.442;  -64.450; -600.000; -547.000
204.588;  -88.325; -592.000; -579.000
204.733;   28.125;  178.000;  168.000
204.879; -130.650;-1018.000; -822.000
205.025;    3.375;  -99.000;  126.000
205.170;   -9.400;  -17.000;   94.000
205.316;   89.075;  438.000;  661.000
205.461;  -91.050; -698.000; -554.000
205.607;   87.675;  609.000;  665.000
205.752;  -82.175; -626.000; -551.000
205.898;  -55.825; -501.000; -391.000
206.043;  -54.775; -578.000; -506.000
206.189;  -49.050; -243.000; -285.000
206.334;   90.725;  554.000;  606.000
206.480;   93.900;  409.000;  239.000
206.625;  -77.925; -529.000; -552.000
206.771;  -51.050; -451.000; -373.000
206.916;  -29.975; -210.000; -537.000
207.062;  -64.325; -545.000; -591.000
207.207;  -67.200; -546.000; -443.000
207.353;   50.825;  185.000;  460.000
207.498;    3.300;  196.000;   85.000
207.643;  -47.075; -501.000; -370.000
207.789; -135.200;-1069.000; -910.000
207.934;  -97.900; -665.000; -713.000
208.080;  -29.475; -154.000;   66.000
208.225;   -3.150;  -22.000;  -57.000
208.370;  -94.300; -727.000; -619.000
208.516;  -66.875; -741.000; -487.000
208.661;  -31.250; -127.000;  -69.000
208.806;   -8.875; -165.000; -171.000
208.952; -132.875;-1044.000; -731.000
209.097;   81.875;  378.000;  349.000
209.242;  -47.275; -307.000; -382.000
209.387;   77.025;  392.000;  350.000
209.533;  -47.025; -321.000; -350.000
209.678;   86.575;  472.000;  543.000
209.823;  -54.250; -408.000; -310.000
209.969;  -99.325; -860.000; -757.000
210.114; -101.700; -907.000; -719.000
210.259; -116.100; -939.000; -889.000
210.404;  -14.025; -171.000;  103.000
210.549;   20.100;  108.000;    3.000
210.695;  -21.050;   -3.000;  -95.000
210.840;   29.125;   94.000;   67.000
210.985;  -64.050; -484.000; -303.000
211.130;   78.300;  268.000;  406.000
211.275;   14.925;  207.000;  199.000
211.420;  -36.850; -300.000; -289.000
211.566;  -72.575; -536.000; -489.000
211.711;   26.400;  218.000;  157.000
211.856;  -78.075; -545.000; -519.000
212.001;   15.725;  151.000;   44.000
212.146;   14.375;  153.000;   49.000
212.291;  -12.525; -210.000; -186.000
212.436;  -20.525; -280.000;   -6.000
212.581;  -74.100; -685.000; -653.000
212.726;  -85.025; -487.000; -538.000
212.871;  -51.150; -552.000; -217.000
213.016; -153.550;-1172.000;-1029.000
213.161;   68.400;  406.000;  291.000
213.306;  -83.000; -435.000; -577.000
213.451;  -94.050; -778.000; -689.000
213.596;  -48.275; -455.000; -347.000
213.741;  -56.600; -448.000; -538.000
213.886;  -81.275; -498.000; -517.000
214.031;  -18.150; -294.000; -124.000
214.176;  -54.825; -408.000; -341.000
214.321;   -4.850; -296.000; -157.000
214.466;  -37.975; -163.000;  -43.000
214.611;   -2.700;  -61.000;  -10.000
214.756; -121.300; -948.000; -858.000
214.901;  -23.175; -388.000; -226.000
215.046; -117.950; -797.000; -825.000
215.191;   18.150;  128.000;   35.000
215.336;  -22.950; -157.000;  -19.000
215.480;  -70.300; -684.000; -505.000
215.625;  -14.725; -175.000;  -19.000
215.770;  -73.225; -757.000; -662.000
215.915;  -13.225;   -5.000;  -97.000
216.060;    7.425; -113.000;  -21.000
216.205; -122.225; -731.000; -779.000
216.349;  -67.925; -470.000; -533.000
216.494; -129.525; -939.000; -867.000
216.639; -112.750; -823.000; -888.000
216.784;  -85.950; -577.000; -525.000
216.929;   46.350;  392.000;  281.000
217.073;   -8.450; -244.000;  -31.000
217.218;   12.225;   78.000;  -47.000
217.363;  -87.100; -656.000; -618.000
217.507;  -70.475; -623.000; -588.000
217.652; -137.250; -845.000; -874.000
217.797;  -81.125; -708.000; -659.000
217.942; -110.275; -856.000; -720.000
218.086;   83.950;  608.000;  539.000
218.231;  -13.925; -174.000;  -26.000
218.376;  -35.100; -337.000; -229.000
218.520;   -0.450;  -41.000;   96.000
218.665;  -32.700; -338.000; -204.000
218.810;  -39.000; -275.000; -233.000
218.954;   19.675;  201.000;   35.000
219.099; -108.050; -713.000; -963.000
219.243;  -62.950; -589.000; -554.000
219.388;  -35.175; -264.000; -136.000
219.532;   -9.250; -116.000; -116.000
219.677;  -87.375; -564.000; -521.000
219.822;   21.425;   33.000;   89.000
219.966;  -11.100;   17.000;  -99.000
220.111;  -31.625; -328.000;  -40.000
220.255; -103.075; -797.000; -750.000
220.400;  -17.475; -180.000; -146.000
220.544;  -73.075; -516.000; -450.000
220.689;  -50.375; -422.000; -451.000
220.833;  -25.350; -123.000;  -58.000
220.978;  -32.775; -393.000; -563.000
221.122;   22.025;  319.000;  307.000
221.267; -103.650; -906.000; -837.000
221.411;  -64.375; -478.000; -394.000
221.555;   -1.675; -104.000;  -23.000
221.700;  -53.975; -329.000; -222.000
221.844;   24.975;  255.000;  272.000
221.989;  -41.375; -328.000; -311.000
222.133;  -30.575; -289.000; -307.000
222.277;  -12.325;    5.000;   78.000
222.422;   19.250;  227.000;  113.000
222.566;  -43.075; -381.000; -214.000
222.711;  -42.100; -414.000; -479.000
222.855;  -86.100; -643.000; -586.000
222.999;  -89.800; -642.000; -717.000
223.144;  -31.375; -195.000; -194.000
223.288;   42.950;  423.000;  251.000
223.432;   37.225;  184.000;  230.000
223.576;   19.425;  152.000;  -21.000
223.721;   24.475;  364.000;  273.000
223.865;  -56.850; -472.000; -475.000
224.009;  236.150; 1673.000; 1631.000
224.153;  -79.450; -660.000; -671.000
224.298;  -68.325; -531.000; -489.000
224.442;   -0.300;  -74.000;  -33.000
224.586;  -18.875; -169.000; -106.000
224.730;  -94.550; -858.000; -670.000
224.875; -115.750; -739.000; -688.000
225.019;    8.700;  102.000;  188.000
225.163;   53.275;  208.000;  341.000
225.307;   45.450;   97.000;  -91.000
225.451;   33.075;  360.000;  481.000
225.595;   29.975;  264.000;  176.000
225.739;  -20.425; -170.000;  -94.000
225.884;    6.325;   86.000;    5.000
226.028; -106.325; -760.000; -626.000
226.172;  -45.975; -260.000; -273.000
226.316; -124.450; -941.000; -902.000
226.460;  -64.850; -645.000; -493.000
226.604;  -54.400; -406.000; -400.000
226.748; -100.500; -836.000; -733.000
226.892;  -46.650; -227.000; -181.000
227.036;  -53.275; -537.000; -447.000
227.180;  -57.050; -551.000; -375.000
227.324;  -60.425; -561.000; -580.000
227.468; -121.900; -819.000; -717.000
227.612;    4.000;  242.000;  -28.000
227.756;  -92.750; -845.000; -698.000
227.900;   71.825;  342.000;  441.000
228.044;  -59.075; -509.000; -290.000
228.188;   70.875;  448.000;  568.000
228.332;  -83.300; -546.000; -472.000
228.476;  -22.300; -223.000; -149.000
228.620;  -33.050; -210.000; -150.000
228.764;   77.600;  431.000;  349.000
228.908;  -23.700; -155.000;   30.000
229.052;  -55.300; -615.000; -528.000
229.195;  -23.575; -172.000;   13.000
229.339;  -25.550; -235.000; -305.000
229.483;  -25.600;    5.000; -162.000
229.627;    9.275; -156.000;  139.000
229.771;  -58.050; -218.000; -294.000
229.915;    5.150;  230.000;   79.000
230.059;  -94.825; -648.000; -663.000
230.202;  -43.075; -370.000; -317.000
230.346;   -8.025; -107.000;  107.000
230.490;  -64.725; -489.000; -521.000
230.634; -116.700; -736.000; -553.000
230.777;   71.950;  478.000;  509.000
230.921;  -46.650; -450.000; -359.000
231.065;  -24.525; -246.000; -286.000
231.209;   13.800;  261.000;  265.000
231.352;   23.225;   54.000;   40.000
231.496;   12.550;  568.000;  188.000
231.640;  -76.675; -693.000; -621.000
231.783;   62.950;  546.000;  525.000
231.927;  -40.300; -294.000; -365.000
232.071; -124.625; -962.000; -736.000
232.214; -102.550; -980.000; -764.000
232.358;  -94.500; -683.000; -599.000
232.502;    9.500;  -19.000;    7.000
232.645; -145.675;-1090.000; -927.000
232.789;  -27.950; -257.000; -218.000
232.933;  -41.875; -407.000; -224.000
233.076; -130.500;-1038.000; -897.000
233.220;  -96.775; -752.000; -777.000
233.363;  -79.375; -669.000; -477.000
233.507;   54.550;  371.000;  129.000
233.650; -100.100; -764.000; -834.000
233.794;   51.000;  438.000;  461.000
233.938;  -40.025; -530.000; -362.000
234.081;  -25.700;  -93.000;   31.000
234.225;  -63.675; -631.000; -539.000
234.368; -112.025; -773.000; -723.000
234.512;  -40.625; -385.000; -299.000
234.655;  -88.350; -582.000; -555.000
234.798;  -73.175; -493.000; -466.000
234.942; -132.300; -884.000;-1002.000
235.085;  -69.850; -651.000; -443.000
235.229;  -66.475; -405.000; -410.000
235.372;  -44.900; -247.000; -191.000
235.516;  -58.875; -397.000; -321.000
235.659;   23.375;   92.000;  121.000
235.802;  -22.150;  -38.000;  -22.000
235.946;   37.700;  335.000;  215.000
236.089;   12.250;  126.000;  250.000
236.233;   51.875;  275.000;  298.000
236.376;  -65.000; -235.000; -378.000
236.519;  -37.300; -297.000; -319.000
236.663;  -26.775; -215.000; -117.000
236.806; -137.375;-1029.000; -999.000
236.949;   60.600;  543.000;  431.000
237.092;   61.925;  412.000;  391.000
237.236;  -84.925; -589.000; -502.000
237.379;   79.175;  352.000;  428.000
237.522; -126.225; -879.000; -768.000
237.666;   -0.225; -271.000;   18.000
237.809; -135.850; -851.000; -823.000
237.952;   32.300;  469.000;  271.000
238.095;  -75.950; -447.000; -442.000
238.238;   86.200;  688.000;  700.000
238.382;    1.725;  166.000;  103.000
238.525;  -47.700; -598.000; -511.000
238.668; -144.850;-1060.000; -985.000
238.811;  -82.200; -638.000; -643.000
238.954;  -48.525; -483.000; -334.000
239.097;   88.775;  617.000;  664.000
239.241;   13.600;  394.000;  326.000
239.384;  -40.675; -254.000; -214.000
239.527;  -52.125; -424.000; -224.000
239.670; -143.350; -994.000;-1091.000
239.813; -116.875; -696.000; -658.000
239.956;   77.225;  579.000;  473.000
240.099; -110.325; -778.000; -725.000
240.242;   62.100;  428.000;  432.000
240.385;   44.225;  466.000;  450.000
240.528;  -73.025; -706.000; -473.000
240.671;   12.575;  189.000;  134.000
240.814;  -41.000; -441.000; -158.000
240.957;  -99.250; -767.000; -578.000
241.100;  -95.625; -779.000; -755.000
241.243; -148.400;-1234.000; -893.000
241.386;  -45.800; -508.000; -379.000
241.529;  -94.700; -735.000; -547.000
241.672;  -59.000; -566.000; -495.000
241.815; -132.525; -832.000; -808.000
241.958;  -15.625; -125.000; -182.000
242.101;  -85.000; -545.000; -390.000
242.244;  -36.925; -270.000; -325.000
242.387;  -52.525; -304.000; -246.000
242.530;   78.250;  470.000;  134.000
242.673;  -45.625; -381.000; -309.000
242.815; -116.950; -925.000; -899.000
242.958;  -73.275; -482.000; -381.000
243.101;   20.900;  132.000;  187.000
243.244;  -76.900; -564.000; -521.000
243.387;  -38.725; -313.000; -316.000
243.530;  -99.525; -657.000; -674.000
243.672;   16.100;   43.000;  -92.000
243.815;  -68.700; -355.000; -283.000
243.958;    3.025;   98.000;  -26.000
244.101;   15.800;   59.000;  -16.000
244.243;  -19.750;  -47.000;  101.000
244.386; -112.675; -761.000; -630.000
244.529;  -21.700; -132.000; -139.000
244.672; -148.900;-1154.000; -951.000
244.814;  -83.950; -621.000; -794.000
244.957;  -50.600; -380.000; -304.000
245.100;  -63.825; -489.000; -489.000
245.242;  -54.775; -387.000; -374.000
245.385;   -1.500;  -59.000;  -39.000
245.528; -122.175; -871.000; -705.000
245.670;  101.350;  612.000;  634.000
245.813;  -90.375; -599.000; -547.000
245.956;  -28.775; -324.000; -275.000
246.098;  -62.400; -508.000; -650.000
246.241;   14.175;  194.000;   48.000
246.383;   -8.775; -119.000;  -73.000
246.526;  -69.850; -454.000; -525.000
246.669; -115.850; -889.000; -780.000
246.811;   18.100;  172.000;   -1.000
246.954;  -59.300; -512.000; -426.000
247.096;  -15.350;  -84.000;   -6.000
247.239;  -72.825; -482.000; -445.000
247.381;  -65.100; -647.000; -488.000
247.524;   80.025;  645.000;  679.000
247.666;   -0.850;   58.000;   11.000
247.809; -119.975; -887.000; -691.000
247.951;   -4.175;  -75.000;  138.000
248.094;   16.125;  432.000;  308.000
248.236; -137.825;-1262.000;-1238.000
248.378;   -4.450; -356.000;  -81.000
248.521;  -11.850; -334.000; -337.000
248.663;  -51.375; -236.000; -267.000
248.806;  -26.775; -300.000; -266.000
248.948; -100.900; -886.000; -763.000
249.090;  -35.800; -428.000; -398.000
249.233;  -48.075; -344.000; -381.000
249.375;  -52.750; -474.000; -451.000
249.518;  -24.475;  -83.000; -133.000
249.660;    7.100; -103.000;    3.000
249.802; -171.150;-1303.000;-1189.000
249.945;  -71.625; -612.000; -540.000
250.087; -108.425; -834.000; -768.000
250.229;  -44.650; -362.000; -480.000
250.371;  -69.450; -494.000; -439.000
250.514;  -49.500; -310.000; -244.000
250.656;   -5.700;   69.000;  102.000
250.798; -120.275; -849.000; -800.000
250.940;  -67.850; -322.000; -322.000
251.083;  -22.400; -335.000; -111.000
251.225;   53.600;  338.000;  310.000
251.367;  -39.750; -274.000; -373.000
251.509;  -31.950; -265.000; -210.000
251.651; -105.475; -731.000; -671.000
251.794;   53.725;  538.000;  632.000
251.936; -110.575; -821.000; -747.000
252.078;  -67.825; -540.000; -461.000
252.220;  -63.575; -645.000; -477.000
252.362;   78.875;  344.000;  462.000
252.504;  -64.050; -677.000; -584.000
252.646; -116.700; -875.000; -722.000
252.788;   -0.025;   14.000; -128.000
252.931;  -27.875; -257.000; -253.000
253.073;  -30.950; -376.000; -317.000
253.215;   -5.750;  141.000;  122.000
253.357;   -5.250;   82.000; -153.000
253.499;  -59.000; -374.000; -234.000
253.641;  -83.675; -749.000; -594.000
253.783;  -90.875; -609.000; -527.000
253.925;  -91.125; -586.000; -591.000
254.067; -111.675; -744.000; -667.000
254.209;  -34.150; -391.000; -259.000
254.351; -142.250; -865.000; -883.000
254.493;  -55.300; -441.000; -417.000
254.635; -130.475; -936.000; -818.000
254.777;  -86.975; -752.000; -687.000
254.918;  -61.850; -512.000; -430.000
255.060;  -56.075; -551.000; -395.000
255.202;  -66.325; -473.000; -261.000
255.344;  -82.950; -658.000; -455.000
255.486;  -74.925; -471.000; -406.000
255.628;  -99.975; -780.000; -781.000
255.770;  -87.300; -676.000; -536.000
255.912;  -61.150; -559.000; -468.000
256.053;  -92.400; -730.000; -508.000
256.195;  151.900; 1008.000;  903.000
256.337; -108.500; -861.000; -595.000
256.479;   78.525;  532.000;  416.000
256.621;  -56.425; -394.000; -212.000
256.762;  -91.725; -789.000; -742.000
256.904;   56.450;  485.000;  487.000
257.046;  -31.975; -381.000; -271.000
257.188;  -53.375; -351.000; -264.000
257.329;  -80.725; -525.000; -464.000
257.471; -129.950; -939.000; -807.000
257.613;  -46.175; -584.000; -498.000
257.755; -147.350;-1073.000; -982.000
257.896;   44.525;  286.000;  392.000
258.038;  -75.875; -403.000; -352.000
258.180;  -37.950; -354.000; -279.000
258.321;  -89.025; -581.000; -457.000
258.463;   -4.000;  -71.000;  133.000
258.605;  -94.075; -562.000; -570.000
258.746; -113.350; -886.000; -772.000
258.888; -148.125;-1026.000;-1020.000
259.029;   16.475;  121.000;   -8.000
259.171;  -84.550; -614.000; -550.000
259.313;    3.700;  -49.000;  -47.000
259.454;  -67.725; -536.000; -414.000
259.596;  -58.025; -483.000; -390.000
259.737;  -78.500; -590.000; -474.000
259.879;   40.375;  217.000;  311.000
260.020;   98.200;  901.000;  636.000
260.162;  -37.150; -146.000; -253.000
260.303; -132.675; -768.000; -687.000
260.445;  -76.475; -609.000; -613.000
260.586;   26.400;  392.000;  157.000
260.728;  -33.950; -360.000; -248.000
260.869;  -84.400; -350.000; -343.000
261.011;   70.025;  706.000;  537.000
261.152;  -71.575; -479.000; -319.000
261.293;  -73.650; -576.000; -595.000
261.435;  -30.275; -219.000; -184.000
261.576;  -53.025; -455.000; -325.000
261.718;   61.750;  420.000;  470.000
261.859; -123.825; -940.000; -949.000
262.000; -138.700; -951.000;-1016.000
262.142;  -13.900;  -52.000;  -60.000
262.283; -112.475; -808.000; -691.000
262.424;  -79.925; -666.000; -625.000
262.566; -169.075;-1161.000; -983.000
262.707; -114.625; -840.000; -830.000
262.848; -120.975; -769.000; -726.000
262.990;  -34.100; -362.000; -345.000
263.131;   74.400;  650.000;  681.000
263.272;  -10.400;  -61.000;  -41.000
263.413;  -85.975; -589.000; -561.000
263.555;  -68.375; -669.000; -143.000
263.696;  -88.625; -550.000; -641.000
263.837;  -52.325; -449.000; -551.000
263.978;  -14.700;   -5.000;  -77.000
264.119;  -38.525; -283.000; -264.000
264.261; -120.200; -847.000; -630.000
264.402;   12.100;   33.000;   40.000
264.543;  -79.725; -509.000; -524.000
264.684;   -3.150;   61.000;  -50.000
264.825;  -67.675; -816.000; -538.000
264.966;  -12.150;  -84.000;  -67.000
265.107; -122.300; -646.000; -670.000
265.248; -106.950; -825.000; -812.000
265.390;  -12.975;  152.000;   -9.000
265.531;  -16.575; -238.000; -107.000
265.672;  -90.000; -557.000; -630.000
265.813;   70.900;  563.000;  439.000
265.954; -144.425; -959.000; -940.000
266.095;  -19.875; -372.000; -322.000
266.236; -106.850; -686.000; -548.000
266.377;  -45.875; -243.000; -297.000
266.518;  -70.500; -619.000; -547.000
266.659;   28.925;  170.000;  268.000
266.800;    6.050;   83.000;   85.000
266.941;  -79.200; -487.000; -478.000
267.082;   25.650;  354.000;   99.000
267.223;  -39.700; -344.000; -273.000
267.364; -123.900; -892.000; -686.000
267.504;  -11.800;    3.000;  135.000
267.645;    0.325;  160.000;   67.000
267.786;  -22.200; -147.000;  -86.000
267.927;  -88.550; -473.000; -379.000
268.068;  -12.875; -186.000;  -61.000
268.209;  -45.925; -175.000; -413.000
268.350;  -58.475; -388.000; -532.000
268.490;  -87.850; -648.000; -521.000
268.631;   31.625;  127.000;  225.000
268.772; -127.175; -874.000; -647.000
268.913;  -43.175; -328.000; -476.000
269.054;  -29.375; -117.000;   12.000
269.194;  -48.125; -418.000; -402.000
269.335; -149.675;-1137.000;-1074.000
269.476;  -18.450;   33.000;  -35.000
269.617;  -55.850; -347.000; -392.000
269.757;  -86.975; -713.000; -646.000
269.898; -120.600; -856.000; -613.000
270.039;  -51.100; -415.000; -405.000
270.180; -148.000; -952.000; -816.000
270.320;   -9.600; -190.000; -250.000
