
Integration time [ms]: 100.000
Averaging Nr. [scans]: 40
Smoothing Nr. [pixels]: 0
Data measured with spectrometer [name]: 2101012U2
Wave   ;Sample   ;Dark     ;Reference
[nm]   ;[counts] ;[counts] ;[counts] 

197.733;   59.275;  516.000;  404.000
197.879;  -78.300; -610.000; -634.000
198.025;  -51.425; -475.000; -420.000
198.171;  -65.675; -602.000; -612.000
198.317;  -28.325; -401.000; -316.000
198.463;  -52.175; -655.000; -404.000
198.609;   17.375;  181.000; -137.000
198.755;  -67.500; -644.000; -410.000
198.901;  -55.400; -505.000; -424.000
199.047;  -56.750; -615.000; -488.000
199.193;  -40.175; -230.000; -468.000
199.339;  -37.325; -222.000; -369.000
199.485;   35.350;  330.000;  271.000
199.631;    8.050;  227.000;  310.000
199.777;  -53.625; -466.000; -398.000
199.923;  -72.575; -610.000; -424.000
200.069;   -8.025; -141.000;  -58.000
200.215;   57.925;  128.000;  453.000
200.361;   40.425;  243.000;  477.000
200.507;  -65.275; -600.000; -373.000
200.653;  -26.100; -371.000; -194.000
200.798;  -31.800; -215.000; -125.000
200.944;   -8.825; -146.000;  -41.000
201.090;   33.125;   61.000;  222.000
201.236;   -9.375; -116.000; -158.000
201.382;  123.275;  874.000;  903.000
201.528;    1.150;  -58.000;  -48.000
201.674;  -58.675; -386.000; -293.000
201.819;  -63.625; -540.000; -439.000
201.965;  -69.350; -699.000; -447.000
202.111;  -32.200; -273.000; -226.000
202.257;  -31.250; -250.000; -238.000
202.402;    0.350;   13.000;  -36.000
202.548;  -14.600; -169.000; -116.000
202.694;   74.725;  410.000; -183.000
202.840;  -73.800; -603.000; -531.000
202.985;  -68.175; -681.000; -639.000
203.131; -102.200; -832.000; -666.000
203.277;  -30.000; -199.000; -262.000
203.423;  -47.675; -434.000; -520.000
203.568;  -48.225; -462.000; -237.000
203.714;  -55.775; -535.000; -542.000
203.860;  -78.250; -682.000; -641.000
204.005;   22.200;  112.000;  167.000
204.151;   79.725;  561.000;  556.000
204.296;  -40.200; -354.000; -221.000
204.442;  -75.250; -600.000; -547.000
204.588;  -66.325; -592.000; -579.000
204.733;   19.750;  178.000;  168.000
204.879; -125.625;-1018.000; -822.000
205.025;   17.175;  -99.000;  126.000
205.170;   19.425;  -17.000;   94.000
205.316;   71.200;  438.000;  661.000
205.461;  -79.150; -698.000; -554.000
205.607;   81.525;  609.000;  665.000
205.752;  -61.325; -626.000; -551.000
205.898;  -53.900; -501.000; -391.000
206.043;  -59.375; -578.000; -506.000
206.189;  -50.850; -243.000; -285.000
206.334;   72.300;  554.000;  606.000
206.480;   76.475;  409.000;  239.000
206.625;  -68.225; -529.000; -552.000
206.771;  -50.800; -451.000; -373.000
206.916;  -33.950; -210.000; -537.000
207.062;  -72.900; -545.000; -591.000
207.207;  -46.900; -546.000; -443.000
207.353;   55.925;  185.000;  460.000
207.498;   12.775;  196.000;   85.000
207.643;  -44.125; -501.000; -370.000
207.789; -116.075;-1069.000; -910.000
207.934; -100.125; -665.000; -713.000
208.080;  -27.850; -154.000;   66.000
208.225;  -15.025;  -22.000;  -57.000
208.370;  -78.750; -727.000; -619.000
208.516;  -74.500; -741.000; -487.000
208.661;  -14.750; -127.000;  -69.000
208.806;  -16.475; -165.000; -171.000
208.952; -116.350;-1044.000; -731.000
209.097;   51.575;  378.000;  349.000
209.242;  -39.625; -307.000; -382.000
209.387;   67.850;  392.000;  350.000
209.533;  -49.175; -321.000; -350.000
209.678;   58.575;  472.000;  543.000
209.823;  -42.800; -408.000; -310.000
209.969;  -96.075; -860.000; -757.000
210.114; -102.550; -907.000; -719.000
210.259; -104.200; -939.000; -889.000
210.404;   -4.325; -171.000;  103.000
210.549;    9.400;  108.000;    3.000
210.695;  -11.550;   -3.000;  -95.000
210.840;   30.100;   94.000;   67.000
210.985;  -65.075; -484.000; -303.000
211.130;   49.575;  268.000;  406.000
211.275;   14.550;  207.000;  199.000
211.420;  -41.825; -300.000; -289.000
211.566;  -67.950; -536.000; -489.000
211.711;   23.525;  218.000;  157.000
211.856;  -54.250; -545.000; -519.000
212.001;    5.450;  151.000;   44.000
212.146;   15.375;  153.000;   49.000
212.291;  -32.850; -210.000; -186.000
212.436;  -20.475; -280.000;   -6.000
212.581;  -81.025; -685.000; -653.000
212.726;  -75.275; -487.000; -538.000
212.871;  -62.475; -552.000; -217.000
213.016; -140.825;-1172.000;-1029.000
213.161;   50.275;  406.000;  291.000
213.306;  -70.650; -435.000; -577.000
213.451;  -95.425; -778.000; -689.000
213.596;  -36.725; -455.000; -347.000
213.741;  -56.925; -448.000; -538.000
213.886;  -74.125; -498.000; -517.000
214.031;  -27.700; -294.000; -124.000
214.176;  -41.750; -408.000; -341.000
214.321;  -23.350; -296.000; -157.000
214.466;  -22.675; -163.000;  -43.000
214.611;    4.325;  -61.000;  -10.000
214.756; -121.350; -948.000; -858.000
214.901;  -19.500; -388.000; -226.000
215.046; -108.050; -797.000; -825.000
215.191;    7.875;  128.000;   35.000
215.336;  -18.175; -157.000;  -19.000
215.480;  -70.025; -684.000; -505.000
215.625;  -30.050; -175.000;  -19.000
215.770;  -65.625; -757.000; -662.000
215.915;   -4.300;   -5.000;  -97.000
216.060;  -17.975; -113.000;  -21.000
216.205; -107.175; -731.000; -779.000
216.349;  -63.175; -470.000; -533.000
216.494; -124.200; -939.000; -867.000
216.639; -105.875; -823.000; -888.000
216.784;  -84.575; -577.000; -525.000
216.929;   37.650;  392.000;  281.000
217.073;  -11.125; -244.000;  -31.000
217.218;   25.650;   78.000;  -47.000
217.363;  -81.500; -656.000; -618.000
217.507;  -84.200; -623.000; -588.000
217.652; -114.200; -845.000; -874.000
217.797;  -80.100; -708.000; -659.000
217.942; -105.875; -856.000; -720.000
218.086;   51.050;  608.000;  539.000
218.231;  -24.750; -174.000;  -26.000
218.376;  -35.400; -337.000; -229.000
218.520;    2.700;  -41.000;   96.000
218.665;  -27.850; -338.000; -204.000
218.810;  -21.100; -275.000; -233.000
218.954;   18.925;  201.000;   35.000
219.099; -104.850; -713.000; -963.000
219.243;  -62.150; -589.000; -554.000
219.388;  -29.325; -264.000; -136.000
219.532;  -16.800; -116.000; -116.000
219.677;  -64.250; -564.000; -521.000
219.822;   -4.275;   33.000;   89.000
219.966;   -3.925;   17.000;  -99.000
220.111;  -30.425; -328.000;  -40.000
220.255;  -89.125; -797.000; -750.000
220.400;  -19.750; -180.000; -146.000
220.544;  -61.175; -516.000; -450.000
220.689;  -55.000; -422.000; -451.000
220.833;  -19.025; -123.000;  -58.000
220.978;  -37.275; -393.000; -563.000
221.122;   21.250;  319.000;  307.000
221.267; -120.525; -906.000; -837.000
221.411;  -52.775; -478.000; -394.000
221.555;    1.300; -104.000;  -23.000
221.700;  -41.625; -329.000; -222.000
221.844;   31.325;  255.000;  272.000
221.989;  -50.925; -328.000; -311.000
222.133;  -35.100; -289.000; -307.000
222.277;   -8.525;    5.000;   78.000
222.422;   12.575;  227.000;  113.000
222.566;  -41.125; -381.000; -214.000
222.711;  -58.075; -414.000; -479.000
222.855;  -67.375; -643.000; -586.000
222.999;  -75.075; -642.000; -717.000
223.144;  -38.100; -195.000; -194.000
223.288;   48.100;  423.000;  251.000
223.432;   31.125;  184.000;  230.000
223.576;   15.150;  152.000;  -21.000
223.721;   36.725;  364.000;  273.000
223.865;  -52.750; -472.000; -475.000
224.009;  223.200; 1673.000; 1631.000
224.153;  -77.425; -660.000; -671.000
224.298;  -59.325; -531.000; -489.000
224.442;   -1.225;  -74.000;  -33.000
224.586;  -14.275; -169.000; -106.000
224.730;  -78.825; -858.000; -670.000
224.875;  -96.325; -739.000; -688.000
225.019;    9.525;  102.000;  188.000
225.163;   53.800;  208.000;  341.000
225.307;   11.050;   97.000;  -91.000
225.451;   42.175;  360.000;  481.000
225.595;   22.175;  264.000;  176.000
225.739;  -19.100; -170.000;  -94.000
225.884;   11.525;   86.000;    5.000
226.028;  -89.975; -760.000; -626.000
226.172;  -29.825; -260.000; -273.000
226.316; -122.750; -941.000; -902.000
226.460;  -74.600; -645.000; -493.000
226.604;  -42.025; -406.000; -400.000
226.748; -101.325; -836.000; -733.000
226.892;  -22.250; -227.000; -181.000
227.036;  -47.150; -537.000; -447.000
227.180;  -65.275; -551.000; -375.000
227.324;  -65.625; -561.000; -580.000
227.468; -104.450; -819.000; -717.000
227.612;   11.950;  242.000;  -28.000
227.756;  -94.825; -845.000; -698.000
227.900;   53.575;  342.000;  441.000
228.044;  -50.575; -509.000; -290.000
228.188;   54.325;  448.000;  568.000
228.332;  -87.150; -546.000; -472.000
228.476;  -21.900; -223.000; -149.000
228.620;  -37.375; -210.000; -150.000
228.764;   59.300;  431.000;  349.000
228.908;  -28.875; -155.000;   30.000
229.052;  -46.775; -615.000; -528.000
229.195;  -20.925; -172.000;   13.000
229.339;  -36.350; -235.000; -305.000
229.483;  -29.350;    5.000; -162.000
229.627;  -11.150; -156.000;  139.000
229.771;  -49.325; -218.000; -294.000
229.915;    7.550;  230.000;   79.000
230.059;  -87.625; -648.000; -663.000
230.202;  -43.400; -370.000; -317.000
230.346;  -39.075; -107.000;  107.000
230.490;  -72.150; -489.000; -521.000
230.634; -102.575; -736.000; -553.000
230.777;   58.850;  478.000;  509.000
230.921;  -39.825; -450.000; -359.000
231.065;  -39.850; -246.000; -286.000
231.209;   19.200;  261.000;  265.000
231.352;    5.075;   54.000;   40.000
231.496;   28.300;  568.000;  188.000
231.640;  -69.900; -693.000; -621.000
231.783;   61.925;  546.000;  525.000
231.927;  -40.475; -294.000; -365.000
232.071; -123.650; -962.000; -736.000
232.214; -113.325; -980.000; -764.000
232.358;  -88.600; -683.000; -599.000
232.502;    6.100;  -19.000;    7.000
232.645; -122.850;-1090.000; -927.000
232.789;  -17.450; -257.000; -218.000
232.933;  -45.300; -407.000; -224.000
233.076; -117.125;-1038.000; -897.000
233.220; -104.600; -752.000; -777.000
233.363;  -76.600; -669.000; -477.000
233.507;   56.900;  371.000;  129.000
233.650; -102.500; -764.000; -834.000
233.794;   49.200;  438.000;  461.000
233.938;  -53.250; -530.000; -362.000
234.081;  -27.700;  -93.000;   31.000
234.225;  -64.350; -631.000; -539.000
234.368; -113.075; -773.000; -723.000
234.512;  -46.775; -385.000; -299.000
234.655;  -79.125; -582.000; -555.000
234.798;  -67.875; -493.000; -466.000
234.942; -125.225; -884.000;-1002.000
235.085;  -79.350; -651.000; -443.000
235.229;  -65.825; -405.000; -410.000
235.372;  -50.525; -247.000; -191.000
235.516;  -54.400; -397.000; -321.000
235.659;   13.125;   92.000;  121.000
235.802;  -16.550;  -38.000;  -22.000
235.946;   16.925;  335.000;  215.000
236.089;   30.925;  126.000;  250.000
236.233;   61.800;  275.000;  298.000
236.376;  -36.725; -235.000; -378.000
236.519;  -47.075; -297.000; -319.000
236.663;   -5.900; -215.000; -117.000
236.806; -129.475;-1029.000; -999.000
236.949;   53.775;  543.000;  431.000
237.092;   53.275;  412.000;  391.000
237.236;  -80.925; -589.000; -502.000
237.379;   49.775;  352.000;  428.000
237.522; -114.300; -879.000; -768.000
237.666;  -19.500; -271.000;   18.000
237.809; -115.000; -851.000; -823.000
237.952;   26.375;  469.000;  271.000
238.095;  -66.175; -447.000; -442.000
238.238;   80.350;  688.000;  700.000
238.382;   -5.275;  166.000;  103.000
238.525;  -72.075; -598.000; -511.000
238.668; -131.475;-1060.000; -985.000
238.811;  -83.725; -638.000; -643.000
238.954;  -54.450; -483.000; -334.000
239.097;   90.600;  617.000;  664.000
239.241;   37.825;  394.000;  326.000
239.384;  -46.575; -254.000; -214.000
239.527;  -54.725; -424.000; -224.000
239.670; -133.325; -994.000;-1091.000
239.813; -110.275; -696.000; -658.000
239.956;   74.075;  579.000;  473.000
240.099; -111.025; -778.000; -725.000
240.242;   65.300;  428.000;  432.000
240.385;   59.025;  466.000;  450.000
240.528;  -57.525; -706.000; -473.000
240.671;   19.200;  189.000;  134.000
240.814;  -44.100; -441.000; -158.000
240.957;  -87.400; -767.000; -578.000
241.100;  -92.550; -779.000; -755.000
241.243; -136.450;-1234.000; -893.000
241.386;  -66.125; -508.000; -379.000
241.529;  -85.375; -735.000; -547.000
241.672;  -58.225; -566.000; -495.000
241.815; -112.800; -832.000; -808.000
241.958;  -15.525; -125.000; -182.000
242.101;  -67.900; -545.000; -390.000
242.244;  -31.500; -270.000; -325.000
242.387;  -31.775; -304.000; -246.000
242.530;   52.700;  470.000;  134.000
242.673;  -37.650; -381.000; -309.000
242.815; -108.075; -925.000; -899.000
242.958;  -75.975; -482.000; -381.000
243.101;    6.725;  132.000;  187.000
243.244;  -81.775; -564.000; -521.000
243.387;  -50.750; -313.000; -316.000
243.530;  -88.325; -657.000; -674.000
243.672;   -2.425;   43.000;  -92.000
243.815;  -65.275; -355.000; -283.000
243.958;    3.550;   98.000;  -26.000
244.101;   -8.650;   59.000;  -16.000
244.243;  -28.575;  -47.000;  101.000
244.386; -111.925; -761.000; -630.000
244.529;  -20.300; -132.000; -139.000
244.672; -141.350;-1154.000; -951.000
244.814;  -93.400; -621.000; -794.000
244.957;  -55.450; -380.000; -304.000
245.100;  -74.925; -489.000; -489.000
245.242;  -67.400; -387.000; -374.000
245.385;  -18.625;  -59.000;  -39.000
245.528; -123.675; -871.000; -705.000
245.670;   87.425;  612.000;  634.000
245.813;  -72.725; -599.000; -547.000
245.956;  -35.225; -324.000; -275.000
246.098;  -78.600; -508.000; -650.000
246.241;   17.300;  194.000;   48.000
246.383;  -20.475; -119.000;  -73.000
246.526;  -74.400; -454.000; -525.000
246.669; -108.275; -889.000; -780.000
246.811;   11.875;  172.000;   -1.000
246.954;  -64.800; -512.000; -426.000
247.096;  -13.250;  -84.000;   -6.000
247.239;  -71.750; -482.000; -445.000
247.381;  -60.975; -647.000; -488.000
247.524;   96.250;  645.000;  679.000
247.666;  -15.525;   58.000;   11.000
247.809; -104.650; -887.000; -691.000
247.951;  -12.750;  -75.000;  138.000
248.094;   32.375;  432.000;  308.000
248.236; -151.750;-1262.000;-1238.000
248.378;  -11.475; -356.000;  -81.000
248.521;  -36.250; -334.000; -337.000
248.663;  -29.925; -236.000; -267.000
248.806;  -35.600; -300.000; -266.000
248.948; -102.625; -886.000; -763.000
249.090;  -55.425; -428.000; -398.000
249.233;  -60.900; -344.000; -381.000
249.375;  -57.800; -474.000; -451.000
249.518;  -29.025;  -83.000; -133.000
249.660;  -23.475; -103.000;    3.000
249.802; -168.950;-1303.000;-1189.000
249.945;  -84.275; -612.000; -540.000
250.087;  -98.575; -834.000; -768.000
250.229;  -43.200; -362.000; -480.000
250.371;  -68.250; -494.000; -439.000
250.514;  -55.950; -310.000; -244.000
250.656;  -10.475;   69.000;  102.000
250.798; -101.300; -849.000; -800.000
250.940;  -48.650; -322.000; -322.000
251.083;  -38.625; -335.000; -111.000
251.225;   58.425;  338.000;  310.000
251.367;  -42.625; -274.000; -373.000
251.509;  -44.850; -265.000; -210.000
251.651;  -93.600; -731.000; -671.000
251.794;   46.950;  538.000;  632.000
251.936; -122.250; -821.000; -747.000
252.078;  -55.500; -540.000; -461.000
252.220;  -67.425; -645.000; -477.000
252.362;   48.425;  344.000;  462.000
252.504;  -72.450; -677.000; -584.000
252.646; -101.625; -875.000; -722.000
252.788;  -14.000;   14.000; -128.000
252.931;  -44.525; -257.000; -253.000
253.073;  -50.775; -376.000; -317.000
253.215;   -0.475;  141.000;  122.000
253.357;  -18.025;   82.000; -153.000
253.499;  -53.800; -374.000; -234.000
253.641;  -92.950; -749.000; -594.000
253.783;  -89.250; -609.000; -527.000
253.925;  -81.825; -586.000; -591.000
254.067; -100.875; -744.000; -667.000
254.209;  -34.225; -391.000; -259.000
254.351; -123.900; -865.000; -883.000
254.493;  -73.800; -441.000; -417.000
254.635; -119.350; -936.000; -818.000
254.777;  -81.500; -752.000; -687.000
254.918;  -65.250; -512.000; -430.000
255.060;  -53.675; -551.000; -395.000
255.202;  -66.275; -473.000; -261.000
255.344;  -80.000; -658.000; -455.000
255.486;  -61.500; -471.000; -406.000
255.628; -103.525; -780.000; -781.000
255.770;  -88.175; -676.000; -536.000
255.912;  -74.650; -559.000; -468.000
256.053;  -82.300; -730.000; -508.000
256.195;  152.675; 1008.000;  903.000
256.337;  -94.950; -861.000; -595.000
256.479;   50.025;  532.000;  416.000
256.621;  -46.800; -394.000; -212.000
256.762; -105.150; -789.000; -742.000
256.904;   45.950;  485.000;  487.000
257.046;  -54.650; -381.000; -271.000
257.188;  -51.300; -351.000; -264.000
257.329;  -70.950; -525.000; -464.000
257.471; -122.600; -939.000; -807.000
257.613;  -64.700; -584.000; -498.000
257.755; -146.400;-1073.000; -982.000
257.896;   30.225;  286.000;  392.000
258.038;  -68.425; -403.000; -352.000
258.180;  -51.150; -354.000; -279.000
258.321;  -80.800; -581.000; -457.000
258.463;  -19.375;  -71.000;  133.000
258.605;  -89.000; -562.000; -570.000
258.746; -102.175; -886.000; -772.000
258.888; -128.900;-1026.000;-1020.000
259.029;   23.625;  121.000;   -8.000
259.171;  -86.800; -614.000; -550.000
259.313;   -6.625;  -49.000;  -47.000
259.454;  -80.175; -536.000; -414.000
259.596;  -60.100; -483.000; -390.000
259.737;  -71.800; -590.000; -474.000
259.879;   35.675;  217.000;  311.000
260.020;   89.900;  901.000;  636.000
260.162;  -31.325; -146.000; -253.000
260.303; -119.275; -768.000; -687.000
260.445;  -85.625; -609.000; -613.000
260.586;   24.025;  392.000;  157.000
260.728;  -53.175; -360.000; -248.000
260.869;  -67.175; -350.000; -343.000
261.011;   55.700;  706.000;  537.000
261.152;  -52.950; -479.000; -319.000
261.293;  -83.125; -576.000; -595.000
261.435;  -30.600; -219.000; -184.000
261.576;  -42.425; -455.000; -325.000
261.718;   49.225;  420.000;  470.000
261.859; -121.100; -940.000; -949.000
262.000; -131.000; -951.000;-1016.000
262.142;  -25.100;  -52.000;  -60.000
262.283; -128.500; -808.000; -691.000
262.424;  -99.150; -666.000; -625.000
262.566; -153.425;-1161.000; -983.000
262.707; -112.325; -840.000; -830.000
262.848; -118.100; -769.000; -726.000
262.990;  -49.775; -362.000; -345.000
263.131;   73.325;  650.000;  681.000
263.272;  -28.350;  -61.000;  -41.000
263.413;  -94.275; -589.000; -561.000
263.555;  -62.350; -669.000; -143.000
263.696;  -87.675; -550.000; -641.000
263.837;  -57.075; -449.000; -551.000
263.978;  -11.275;   -5.000;  -77.000
264.119;  -53.650; -283.000; -264.000
264.261; -102.150; -847.000; -630.000
264.402;   -9.325;   33.000;   40.000
264.543;  -82.325; -509.000; -524.000
264.684;  -23.350;   61.000;  -50.000
264.825;  -59.975; -816.000; -538.000
264.966;  -18.775;  -84.000;  -67.000
265.107; -114.050; -646.000; -670.000
265.248; -115.100; -825.000; -812.000
265.390;    1.875;  152.000;   -9.000
265.531;  -27.675; -238.000; -107.000
265.672;  -88.900; -557.000; -630.000
265.813;   53.100;  563.000;  439.000
265.954; -132.325; -959.000; -940.000
266.095;  -30.525; -372.000; -322.000
266.236;  -96.575; -686.000; -548.000
266.377;  -46.125; -243.000; -297.000
266.518;  -74.875; -619.000; -547.000
266.659;   12.650;  170.000;  268.000
266.800;   -1.900;   83.000;   85.000
266.941;  -77.075; -487.000; -478.000
267.082;   10.000;  354.000;   99.000
267.223;  -56.150; -344.000; -273.000
267.364; -110.100; -892.000; -686.000
267.504;  -21.675;    3.000;  135.000
267.645;    3.650;  160.000;   67.000
267.786;  -45.425; -147.000;  -86.000
267.927;  -76.575; -473.000; -379.000
268.068;  -14.425; -186.000;  -61.000
268.209;  -60.375; -175.000; -413.000
268.350;  -55.350; -388.000; -532.000
268.490;  -99.975; -648.000; -521.000
268.631;   18.700;  127.000;  225.000
268.772; -108.625; -874.000; -647.000
268.913;  -57.700; -328.000; -476.000
269.054;   -8.975; -117.000;   12.000
269.194;  -45.600; -418.000; -402.000
269.335; -163.350;-1137.000;-1074.000
269.476;  -21.125;   33.000;  -35.000
269.617;  -42.325; -347.000; -392.000
269.757;  -90.550; -713.000; -646.000
269.898; -101.050; -856.000; -613.000
270.039;  -66.775; -415.000; -405.000
270.180; -128.675; -952.000; -816.000
270.320;  -43.375; -190.000; -250.000
