
Integration time [ms]: 100.000
Averaging Nr. [scans]: 40
Smoothing Nr. [pixels]: 0
Data measured with spectrometer [name]: 2101012U2
Wave   ;Sample   ;Dark     ;Reference
[nm]   ;[counts] ;[counts] ;[counts] 

197.733;   62.200;  516.000;  404.000
197.879;  -68.600; -610.000; -634.000
198.025;  -41.750; -475.000; -420.000
198.171;  -79.575; -602.000; -612.000
198.317;  -25.600; -401.000; -316.000
198.463;  -49.925; -655.000; -404.000
198.609;   31.000;  181.000; -137.000
198.755;  -81.125; -644.000; -410.000
198.901;  -57.675; -505.000; -424.000
199.047;  -65.775; -615.000; -488.000
199.193;  -30.500; -230.000; -468.000
199.339;  -35.650; -222.000; -369.000
199.485;   39.775;  330.000;  271.000
199.631;   16.375;  227.000;  310.000
199.777;  -53.675; -466.000; -398.000
199.923;  -53.450; -610.000; -424.000
200.069;   -1.475; -141.000;  -58.000
200.215;   60.975;  128.000;  453.000
200.361;   48.000;  243.000;  477.000
200.507;  -59.050; -600.000; -373.000
200.653;  -27.725; -371.000; -194.000
200.798;  -38.475; -215.000; -125.000
200.944;   -8.475; -146.000;  -41.000
201.090;   41.300;   61.000;  222.000
201.236;   11.700; -116.000; -158.000
201.382;  122.275;  874.000;  903.000
201.528;   14.000;  -58.000;  -48.000
201.674;  -46.375; -386.000; -293.000
201.819;  -72.225; -540.000; -439.000
201.965;  -87.425; -699.000; -447.000
202.111;  -24.100; -273.000; -226.000
202.257;  -27.275; -250.000; -238.000
202.402;   14.425;   13.000;  -36.000
202.548;  -31.875; -169.000; -116.000
202.694;   84.400;  410.000; -183.000
202.840;  -74.925; -603.000; -531.000
202.985;  -65.525; -681.000; -639.000
203.131; -104.125; -832.000; -666.000
203.277;  -17.600; -199.000; -262.000
203.423;  -38.650; -434.000; -520.000
203.568;  -30.750; -462.000; -237.000
203.714;  -52.725; -535.000; -542.000
203.860;  -71.950; -682.000; -641.000
204.005;   10.525;  112.000;  167.000
204.151;   87.775;  561.000;  556.000
204.296;  -37.475; -354.000; -221.000
204.442;  -58.025; -600.000; -547.000
204.588;  -76.450; -592.000; -579.000
204.733;   17.300;  178.000;  168.000
204.879; -126.875;-1018.000; -822.000
205.025;    7.100;  -99.000;  126.000
205.170;    6.275;  -17.000;   94.000
205.316;   80.575;  438.000;  661.000
205.461;  -86.800; -698.000; -554.000
205.607;   91.750;  609.000;  665.000
205.752;  -77.875; -626.000; -551.000
205.898;  -45.825; -501.000; -391.000
206.043;  -59.700; -578.000; -506.000
206.189;  -44.800; -243.000; -285.000
206.334;   73.125;  554.000;  606.000
206.480;   70.025;  409.000;  239.000
206.625;  -79.175; -529.000; -552.000
206.771;  -37.825; -451.000; -373.000
206.916;  -47.225; -210.000; -537.000
207.062;  -75.450; -545.000; -591.000
207.207;  -58.375; -546.000; -443.000
207.353;   48.900;  185.000;  460.000
207.498;   15.575;  196.000;   85.000
207.643;  -46.000; -501.000; -370.000
207.789; -120.875;-1069.000; -910.000
207.934;  -88.775; -665.000; -713.000
208.080;  -26.650; -154.000;   66.000
208.225;   -6.550;  -22.000;  -57.000
208.370;  -78.925; -727.000; -619.000
208.516;  -75.850; -741.000; -487.000
208.661;   -7.150; -127.000;  -69.000
208.806;  -25.425; -165.000; -171.000
208.952; -116.750;-1044.000; -731.000
209.097;   65.875;  378.000;  349.000
209.242;  -54.150; -307.000; -382.000
209.387;   65.325;  392.000;  350.000
209.533;  -39.700; -321.000; -350.000
209.678;   76.975;  472.000;  543.000
209.823;  -50.175; -408.000; -310.000
209.969;  -89.550; -860.000; -757.000
210.114;  -97.250; -907.000; -719.000
210.259; -107.275; -939.000; -889.000
210.404;  -26.700; -171.000;  103.000
210.549;   -3.125;  108.000;    3.000
210.695;  -25.225;   -3.000;  -95.000
210.840;   49.675;   94.000;   67.000
210.985;  -66.525; -484.000; -303.000
211.130;   64.400;  268.000;  406.000
211.275;   10.300;  207.000;  199.000
211.420;  -58.725; -300.000; -289.000
211.566;  -64.600; -536.000; -489.000
211.711;   29.250;  218.000;  157.000
211.856;  -77.750; -545.000; -519.000
212.001;    9.050;  151.000;   44.000
212.146;   24.800;  153.000;   49.000
212.291;  -10.825; -210.000; -186.000
212.436;  -14.625; -280.000;   -6.000
212.581;  -76.475; -685.000; -653.000
212.726;  -61.225; -487.000; -538.000
212.871;  -45.725; -552.000; -217.000
213.016; -144.050;-1172.000;-1029.000
213.161;   61.450;  406.000;  291.000
213.306;  -73.775; -435.000; -577.000
213.451;  -86.150; -778.000; -689.000
213.596;  -57.700; -455.000; -347.000
213.741;  -47.825; -448.000; -538.000
213.886;  -78.900; -498.000; -517.000
214.031;  -17.325; -294.000; -124.000
214.176;  -48.100; -408.000; -341.000
214.321;  -12.975; -296.000; -157.000
214.466;  -20.875; -163.000;  -43.000
214.611;   -0.600;  -61.000;  -10.000
214.756; -122.150; -948.000; -858.000
214.901;  -27.850; -388.000; -226.000
215.046; -115.125; -797.000; -825.000
215.191;   21.250;  128.000;   35.000
215.336;   -8.150; -157.000;  -19.000
215.480;  -60.525; -684.000; -505.000
215.625;    0.175; -175.000;  -19.000
215.770;  -71.425; -757.000; -662.000
215.915;    7.350;   -5.000;  -97.000
216.060;   -5.250; -113.000;  -21.000
216.205; -109.925; -731.000; -779.000
216.349;  -72.775; -470.000; -533.000
216.494; -133.450; -939.000; -867.000
216.639; -112.500; -823.000; -888.000
216.784;  -85.400; -577.000; -525.000
216.929;   50.900;  392.000;  281.000
217.073;  -15.350; -244.000;  -31.000
217.218;   22.025;   78.000;  -47.000
217.363;  -88.025; -656.000; -618.000
217.507;  -76.525; -623.000; -588.000
217.652; -101.900; -845.000; -874.000
217.797;  -72.750; -708.000; -659.000
217.942;  -99.375; -856.000; -720.000
218.086;   74.425;  608.000;  539.000
218.231;  -10.925; -174.000;  -26.000
218.376;  -15.950; -337.000; -229.000
218.520;    9.600;  -41.000;   96.000
218.665;  -50.150; -338.000; -204.000
218.810;  -51.725; -275.000; -233.000
218.954;   12.125;  201.000;   35.000
219.099; -101.025; -713.000; -963.000
219.243;  -56.425; -589.000; -554.000
219.388;  -17.650; -264.000; -136.000
219.532;   -4.475; -116.000; -116.000
219.677;  -70.450; -564.000; -521.000
219.822;   11.925;   33.000;   89.000
219.966;    5.225;   17.000;  -99.000
220.111;  -38.400; -328.000;  -40.000
220.255; -102.550; -797.000; -750.000
220.400;  -11.625; -180.000; -146.000
220.544;  -82.175; -516.000; -450.000
220.689;  -48.025; -422.000; -451.000
220.833;  -25.175; -123.000;  -58.000
220.978;  -41.325; -393.000; -563.000
221.122;   27.150;  319.000;  307.000
221.267; -114.675; -906.000; -837.000
221.411;  -64.825; -478.000; -394.000
221.555;   -0.525; -104.000;  -23.000
221.700;  -47.725; -329.000; -222.000
221.844;   31.475;  255.000;  272.000
221.989;  -46.525; -328.000; -311.000
222.133;  -14.575; -289.000; -307.000
222.277;   -5.925;    5.000;   78.000
222.422;   29.200;  227.000;  113.000
222.566;  -35.525; -381.000; -214.000
222.711;  -49.850; -414.000; -479.000
222.855;  -83.725; -643.000; -586.000
222.999;  -76.525; -642.000; -717.000
223.144;  -22.150; -195.000; -194.000
223.288;   49.050;  423.000;  251.000
223.432;   36.975;  184.000;  230.000
223.576;   21.200;  152.000;  -21.000
223.721;   28.425;  364.000;  273.000
223.865;  -46.775; -472.000; -475.000
224.009;  234.250; 1673.000; 1631.000
224.153;  -78.000; -660.000; -671.000
224.298;  -56.875; -531.000; -489.000
224.442;  -16.550;  -74.000;  -33.000
224.586;  -15.350; -169.000; -106.000
224.730; -105.275; -858.000; -670.000
224.875;  -96.250; -739.000; -688.000
225.019;   23.550;  102.000;  188.000
225.163;   36.050;  208.000;  341.000
225.307;   17.450;   97.000;  -91.000
225.451;   45.900;  360.000;  481.000
225.595;   30.625;  264.000;  176.000
225.739;  -17.550; -170.000;  -94.000
225.884;    2.625;   86.000;    5.000
226.028;  -97.775; -760.000; -626.000
226.172;  -35.150; -260.000; -273.000
226.316; -119.200; -941.000; -902.000
226.460;  -63.625; -645.000; -493.000
226.604;  -52.800; -406.000; -400.000
226.748;  -99.450; -836.000; -733.000
226.892;  -33.825; -227.000; -181.000
227.036;  -47.200; -537.000; -447.000
227.180;  -36.300; -551.000; -375.000
227.324;  -54.825; -561.000; -580.000
227.468; -116.150; -819.000; -717.000
227.612;   20.850;  242.000;  -28.000
227.756;  -86.000; -845.000; -698.000
227.900;   40.700;  342.000;  441.000
228.044;  -61.600; -509.000; -290.000
228.188;   54.750;  448.000;  568.000
228.332;  -83.625; -546.000; -472.000
228.476;  -27.650; -223.000; -149.000
228.620;  -35.950; -210.000; -150.000
228.764;   69.075;  431.000;  349.000
228.908;  -23.950; -155.000;   30.000
229.052;  -45.525; -615.000; -528.000
229.195;  -20.950; -172.000;   13.000
229.339;  -30.050; -235.000; -305.000
229.483;  -24.775;    5.000; -162.000
229.627;  -14.550; -156.000;  139.000
229.771;  -55.950; -218.000; -294.000
229.915;    8.950;  230.000;   79.000
230.059;  -89.550; -648.000; -663.000
230.202;  -26.050; -370.000; -317.000
230.346;  -29.250; -107.000;  107.000
230.490;  -69.600; -489.000; -521.000
230.634; -103.000; -736.000; -553.000
230.777;   86.600;  478.000;  509.000
230.921;  -54.075; -450.000; -359.000
231.065;  -37.350; -246.000; -286.000
231.209;   21.050;  261.000;  265.000
231.352;   12.550;   54.000;   40.000
231.496;   27.075;  568.000;  188.000
231.640;  -71.500; -693.000; -621.000
231.783;   66.650;  546.000;  525.000
231.927;  -37.300; -294.000; -365.000
232.071; -139.250; -962.000; -736.000
232.214;  -99.825; -980.000; -764.000
232.358;  -78.975; -683.000; -599.000
232.502;    8.450;  -19.000;    7.000
232.645; -137.050;-1090.000; -927.000
232.789;  -25.850; -257.000; -218.000
232.933;  -41.400; -407.000; -224.000
233.076; -111.925;-1038.000; -897.000
233.220;  -96.550; -752.000; -777.000
233.363;  -75.500; -669.000; -477.000
233.507;   50.600;  371.000;  129.000
233.650; -100.100; -764.000; -834.000
233.794;   29.700;  438.000;  461.000
233.938;  -56.150; -530.000; -362.000
234.081;  -20.475;  -93.000;   31.000
234.225;  -44.500; -631.000; -539.000
234.368; -101.600; -773.000; -723.000
234.512;  -32.675; -385.000; -299.000
234.655;  -89.475; -582.000; -555.000
234.798;  -65.800; -493.000; -466.000
234.942; -129.450; -884.000;-1002.000
235.085;  -63.275; -651.000; -443.000
235.229;  -68.200; -405.000; -410.000
235.372;  -45.775; -247.000; -191.000
235.516;  -53.575; -397.000; -321.000
235.659;   23.750;   92.000;  121.000
235.802;  -17.275;  -38.000;  -22.000
235.946;   31.625;  335.000;  215.000
236.089;   32.450;  126.000;  250.000
236.233;   45.075;  275.000;  298.000
236.376;  -47.450; -235.000; -378.000
236.519;  -36.350; -297.000; -319.000
236.663;  -21.275; -215.000; -117.000
236.806; -126.900;-1029.000; -999.000
236.949;   48.150;  543.000;  431.000
237.092;   65.100;  412.000;  391.000
237.236;  -89.075; -589.000; -502.000
237.379;   62.400;  352.000;  428.000
237.522; -114.100; -879.000; -768.000
237.666;  -15.850; -271.000;   18.000
237.809; -138.025; -851.000; -823.000
237.952;   41.350;  469.000;  271.000
238.095;  -63.175; -447.000; -442.000
238.238;   88.150;  688.000;  700.000
238.382;   -0.900;  166.000;  103.000
238.525;  -63.575; -598.000; -511.000
238.668; -137.650;-1060.000; -985.000
238.811;  -70.800; -638.000; -643.000
238.954;  -53.800; -483.000; -334.000
239.097;  100.950;  617.000;  664.000
239.241;   27.700;  394.000;  326.000
239.384;  -27.400; -254.000; -214.000
239.527;  -59.675; -424.000; -224.000
239.670; -142.400; -994.000;-1091.000
239.813;  -99.850; -696.000; -658.000
239.956;   76.050;  579.000;  473.000
240.099;  -97.100; -778.000; -725.000
240.242;   51.075;  428.000;  432.000
240.385;   38.825;  466.000;  450.000
240.528;  -67.650; -706.000; -473.000
240.671;   19.100;  189.000;  134.000
240.814;  -45.425; -441.000; -158.000
240.957;  -90.425; -767.000; -578.000
241.100;  -85.050; -779.000; -755.000
241.243; -139.825;-1234.000; -893.000
241.386;  -67.975; -508.000; -379.000
241.529;  -98.750; -735.000; -547.000
241.672;  -61.850; -566.000; -495.000
241.815; -119.500; -832.000; -808.000
241.958;  -22.500; -125.000; -182.000
242.101;  -75.675; -545.000; -390.000
242.244;  -29.150; -270.000; -325.000
242.387;  -35.500; -304.000; -246.000
242.530;   49.050;  470.000;  134.000
242.673;  -48.675; -381.000; -309.000
242.815; -111.800; -925.000; -899.000
242.958;  -63.050; -482.000; -381.000
243.101;   17.175;  132.000;  187.000
243.244;  -83.100; -564.000; -521.000
243.387;  -30.325; -313.000; -316.000
243.530;  -95.375; -657.000; -674.000
243.672;   15.150;   43.000;  -92.000
243.815;  -53.375; -355.000; -283.000
243.958;  -10.550;   98.000;  -26.000
244.101;    8.075;   59.000;  -16.000
244.243;  -18.400;  -47.000;  101.000
244.386; -114.200; -761.000; -630.000
244.529;  -36.250; -132.000; -139.000
244.672; -150.400;-1154.000; -951.000
244.814;  -90.975; -621.000; -794.000
244.957;  -69.725; -380.000; -304.000
245.100;  -71.800; -489.000; -489.000
245.242;  -63.525; -387.000; -374.000
245.385;    4.300;  -59.000;  -39.000
245.528; -119.300; -871.000; -705.000
245.670;   85.375;  612.000;  634.000
245.813;  -90.325; -599.000; -547.000
245.956;  -38.000; -324.000; -275.000
246.098;  -72.650; -508.000; -650.000
246.241;    5.700;  194.000;   48.000
246.383;    0.100; -119.000;  -73.000
246.526;  -72.325; -454.000; -525.000
246.669; -118.050; -889.000; -780.000
246.811;   21.000;  172.000;   -1.000
246.954;  -64.550; -512.000; -426.000
247.096;  -20.125;  -84.000;   -6.000
247.239;  -56.725; -482.000; -445.000
247.381;  -69.925; -647.000; -488.000
247.524;   87.950;  645.000;  679.000
247.666;   -8.875;   58.000;   11.000
247.809; -111.600; -887.000; -691.000
247.951;   -9.075;  -75.000;  138.000
248.094;   28.575;  432.000;  308.000
248.236; -148.900;-1262.000;-1238.000
248.378;   13.800; -356.000;  -81.000
248.521;  -20.725; -334.000; -337.000
248.663;  -35.500; -236.000; -267.000
248.806;  -30.500; -300.000; -266.000
248.948;  -82.325; -886.000; -763.000
249.090;  -41.250; -428.000; -398.000
249.233;  -60.225; -344.000; -381.000
249.375;  -57.125; -474.000; -451.000
249.518;  -25.500;  -83.000; -133.000
249.660;   -4.875; -103.000;    3.000
249.802; -158.850;-1303.000;-1189.000
249.945;  -67.700; -612.000; -540.000
250.087; -106.375; -834.000; -768.000
250.229;  -32.725; -362.000; -480.000
250.371;  -79.425; -494.000; -439.000
250.514;  -47.575; -310.000; -244.000
250.656;  -10.975;   69.000;  102.000
250.798; -112.500; -849.000; -800.000
250.940;  -55.125; -322.000; -322.000
251.083;  -21.225; -335.000; -111.000
251.225;   66.950;  338.000;  310.000
251.367;  -30.800; -274.000; -373.000
251.509;  -34.925; -265.000; -210.000
251.651;  -83.200; -731.000; -671.000
251.794;   47.900;  538.000;  632.000
251.936;  -99.750; -821.000; -747.000
252.078;  -85.700; -540.000; -461.000
252.220;  -74.100; -645.000; -477.000
252.362;   83.625;  344.000;  462.000
252.504;  -66.600; -677.000; -584.000
252.646; -113.200; -875.000; -722.000
252.788;  -11.600;   14.000; -128.000
252.931;  -42.775; -257.000; -253.000
253.073;  -41.350; -376.000; -317.000
253.215;   -9.300;  141.000;  122.000
253.357;   -9.525;   82.000; -153.000
253.499;  -44.375; -374.000; -234.000
253.641;  -89.050; -749.000; -594.000
253.783;  -99.800; -609.000; -527.000
253.925;  -89.525; -586.000; -591.000
254.067;  -97.350; -744.000; -667.000
254.209;  -24.550; -391.000; -259.000
254.351; -126.900; -865.000; -883.000
254.493;  -56.525; -441.000; -417.000
254.635; -127.650; -936.000; -818.000
254.777;  -98.650; -752.000; -687.000
254.918;  -64.200; -512.000; -430.000
255.060;  -61.075; -551.000; -395.000
255.202;  -46.350; -473.000; -261.000
255.344;  -75.350; -658.000; -455.000
255.486;  -71.875; -471.000; -406.000
255.628; -102.150; -780.000; -781.000
255.770;  -83.950; -676.000; -536.000
255.912;  -65.325; -559.000; -468.000
256.053;  -91.375; -730.000; -508.000
256.195;  147.700; 1008.000;  903.000
256.337;  -99.400; -861.000; -595.000
256.479;   70.650;  532.000;  416.000
256.621;  -34.025; -394.000; -212.000
256.762;  -88.050; -789.000; -742.000
256.904;   47.375;  485.000;  487.000
257.046;  -31.700; -381.000; -271.000
257.188;  -45.150; -351.000; -264.000
257.329;  -63.400; -525.000; -464.000
257.471; -115.725; -939.000; -807.000
257.613;  -56.775; -584.000; -498.000
257.755; -145.450;-1073.000; -982.000
257.896;   34.300;  286.000;  392.000
258.038;  -58.275; -403.000; -352.000
258.180;  -41.975; -354.000; -279.000
258.321;  -71.150; -581.000; -457.000
258.463;    2.000;  -71.000;  133.000
258.605;  -98.600; -562.000; -570.000
258.746;  -99.950; -886.000; -772.000
258.888; -147.350;-1026.000;-1020.000
259.029;   17.800;  121.000;   -8.000
259.171;  -88.125; -614.000; -550.000
259.313;    2.300;  -49.000;  -47.000
259.454;  -74.175; -536.000; -414.000
259.596;  -54.725; -483.000; -390.000
259.737;  -74.075; -590.000; -474.000
259.879;   33.700;  217.000;  311.000
260.020;   90.925;  901.000;  636.000
260.162;  -26.775; -146.000; -253.000
260.303; -104.900; -768.000; -687.000
260.445;  -82.475; -609.000; -613.000
260.586;   25.325;  392.000;  157.000
260.728;  -51.175; -360.000; -248.000
260.869; -119.400; -350.000; -343.000
261.011;   66.925;  706.000;  537.000
261.152;  -58.400; -479.000; -319.000
261.293;  -73.225; -576.000; -595.000
261.435;  -32.050; -219.000; -184.000
261.576;  -37.875; -455.000; -325.000
261.718;   53.175;  420.000;  470.000
261.859; -115.000; -940.000; -949.000
262.000; -117.200; -951.000;-1016.000
262.142;  -21.600;  -52.000;  -60.000
262.283; -107.275; -808.000; -691.000
262.424;  -82.550; -666.000; -625.000
262.566; -146.675;-1161.000; -983.000
262.707; -116.450; -840.000; -830.000
262.848; -108.625; -769.000; -726.000
262.990;  -45.975; -362.000; -345.000
263.131;   76.850;  650.000;  681.000
263.272;   -7.000;  -61.000;  -41.000
263.413;  -84.750; -589.000; -561.000
263.555;  -70.750; -669.000; -143.000
263.696;  -85.750; -550.000; -641.000
263.837;  -54.525; -449.000; -551.000
263.978;   -1.375;   -5.000;  -77.000
264.119;  -39.700; -283.000; -264.000
264.261; -116.425; -847.000; -630.000
264.402;   -2.425;   33.000;   40.000
264.543;  -68.725; -509.000; -524.000
264.684;   -1.725;   61.000;  -50.000
264.825;  -70.250; -816.000; -538.000
264.966;  -10.800;  -84.000;  -67.000
265.107; -100.575; -646.000; -670.000
265.248;  -97.675; -825.000; -812.000
265.390;  -12.925;  152.000;   -9.000
265.531;  -13.100; -238.000; -107.000
265.672;  -79.925; -557.000; -630.000
265.813;   64.575;  563.000;  439.000
265.954; -146.075; -959.000; -940.000
266.095;  -32.000; -372.000; -322.000
266.236;  -89.200; -686.000; -548.000
266.377;  -47.075; -243.000; -297.000
266.518;  -66.425; -619.000; -547.000
266.659;   21.350;  170.000;  268.000
266.800;    6.350;   83.000;   85.000
266.941;  -72.425; -487.000; -478.000
267.082;   17.725;  354.000;   99.000
267.223;  -46.250; -344.000; -273.000
267.364; -119.300; -892.000; -686.000
267.504;  -15.450;    3.000;  135.000
267.645;    9.225;  160.000;   67.000
267.786;  -32.250; -147.000;  -86.000
267.927;  -73.975; -473.000; -379.000
268.068;   -8.225; -186.000;  -61.000
268.209;  -44.050; -175.000; -413.000
268.350;  -63.875; -388.000; -532.000
268.490;  -87.825; -648.000; -521.000
268.631;   38.025;  127.000;  225.000
268.772; -114.450; -874.000; -647.000
268.913;  -48.400; -328.000; -476.000
269.054;  -16.825; -117.000;   12.000
269.194;  -58.975; -418.000; -402.000
269.335; -146.375;-1137.000;-1074.000
269.476;  -14.550;   33.000;  -35.000
269.617;  -52.725; -347.000; -392.000
269.757;  -82.900; -713.000; -646.000
269.898;  -95.475; -856.000; -613.000
270.039;  -53.050; -415.000; -405.000
270.180; -137.675; -952.000; -816.000
270.320;  -17.650; -190.000; -250.000
