
Integration time [ms]: 100.000
Averaging Nr. [scans]: 40
Smoothing Nr. [pixels]: 0
Data measured with spectrometer [name]: 2101012U2
Wave   ;Sample   ;Dark     ;Reference
[nm]   ;[counts] ;[counts] ;[counts] 

197.733;   64.300;  516.000;  404.000
197.879;  -76.650; -610.000; -634.000
198.025;  -44.975; -475.000; -420.000
198.171;  -66.000; -602.000; -612.000
198.317;  -40.100; -401.000; -316.000
198.463;  -55.350; -655.000; -404.000
198.609;   38.025;  181.000; -137.000
198.755;  -84.525; -644.000; -410.000
198.901;  -66.775; -505.000; -424.000
199.047;  -71.250; -615.000; -488.000
199.193;  -30.525; -230.000; -468.000
199.339;  -41.850; -222.000; -369.000
199.485;   37.500;  330.000;  271.000
199.631;   19.250;  227.000;  310.000
199.777;  -44.925; -466.000; -398.000
199.923;  -55.625; -610.000; -424.000
200.069;   -0.075; -141.000;  -58.000
200.215;   60.550;  128.000;  453.000
200.361;   38.925;  243.000;  477.000
200.507;  -55.100; -600.000; -373.000
200.653;  -22.325; -371.000; -194.000
200.798;  -49.050; -215.000; -125.000
200.944;    3.750; -146.000;  -41.000
201.090;   39.775;   61.000;  222.000
201.236;    2.500; -116.000; -158.000
201.382;  131.525;  874.000;  903.000
201.528;   14.850;  -58.000;  -48.000
201.674;  -45.200; -386.000; -293.000
201.819;  -62.775; -540.000; -439.000
201.965;  -78.600; -699.000; -447.000
202.111;  -24.125; -273.000; -226.000
202.257;  -35.500; -250.000; -238.000
202.402;    8.600;   13.000;  -36.000
202.548;  -19.800; -169.000; -116.000
202.694;   92.150;  410.000; -183.000
202.840;  -79.800; -603.000; -531.000
202.985;  -71.875; -681.000; -639.000
203.131; -111.800; -832.000; -666.000
203.277;  -15.875; -199.000; -262.000
203.423;  -38.300; -434.000; -520.000
203.568;  -29.150; -462.000; -237.000
203.714;  -53.050; -535.000; -542.000
203.860;  -67.625; -682.000; -641.000
204.005;   22.250;  112.000;  167.000
204.151;   85.050;  561.000;  556.000
204.296;  -36.875; -354.000; -221.000
204.442;  -72.450; -600.000; -547.000
204.588;  -77.800; -592.000; -579.000
204.733;   21.975;  178.000;  168.000
204.879; -120.125;-1018.000; -822.000
205.025;    7.050;  -99.000;  126.000
205.170;   11.325;  -17.000;   94.000
205.316;   80.575;  438.000;  661.000
205.461;  -91.550; -698.000; -554.000
205.607;   84.250;  609.000;  665.000
205.752;  -74.000; -626.000; -551.000
205.898;  -38.300; -501.000; -391.000
206.043;  -52.775; -578.000; -506.000
206.189;  -38.475; -243.000; -285.000
206.334;   87.475;  554.000;  606.000
206.480;   99.075;  409.000;  239.000
206.625;  -81.800; -529.000; -552.000
206.771;  -40.300; -451.000; -373.000
206.916;  -36.650; -210.000; -537.000
207.062;  -70.125; -545.000; -591.000
207.207;  -70.175; -546.000; -443.000
207.353;   63.750;  185.000;  460.000
207.498;   29.725;  196.000;   85.000
207.643;  -45.900; -501.000; -370.000
207.789; -125.575;-1069.000; -910.000
207.934;  -89.250; -665.000; -713.000
208.080;  -27.750; -154.000;   66.000
208.225;  -16.900;  -22.000;  -57.000
208.370;  -67.625; -727.000; -619.000
208.516;  -73.750; -741.000; -487.000
208.661;  -25.775; -127.000;  -69.000
208.806;  -19.075; -165.000; -171.000
208.952; -121.800;-1044.000; -731.000
209.097;   76.200;  378.000;  349.000
209.242;  -54.200; -307.000; -382.000
209.387;   68.575;  392.000;  350.000
209.533;  -42.300; -321.000; -350.000
209.678;   80.950;  472.000;  543.000
209.823;  -55.700; -408.000; -310.000
209.969; -100.725; -860.000; -757.000
210.114;  -99.750; -907.000; -719.000
210.259; -126.325; -939.000; -889.000
210.404;  -14.100; -171.000;  103.000
210.549;    9.600;  108.000;    3.000
210.695;   -5.175;   -3.000;  -95.000
210.840;   25.325;   94.000;   67.000
210.985;  -53.900; -484.000; -303.000
211.130;   73.175;  268.000;  406.000
211.275;   27.025;  207.000;  199.000
211.420;  -40.975; -300.000; -289.000
211.566;  -65.950; -536.000; -489.000
211.711;   12.950;  218.000;  157.000
211.856;  -59.850; -545.000; -519.000
212.001;   18.600;  151.000;   44.000
212.146;   24.525;  153.000;   49.000
212.291;  -17.075; -210.000; -186.000
212.436;  -33.400; -280.000;   -6.000
212.581;  -86.825; -685.000; -653.000
212.726;  -77.575; -487.000; -538.000
212.871;  -43.250; -552.000; -217.000
213.016; -146.050;-1172.000;-1029.000
213.161;   64.325;  406.000;  291.000
213.306;  -63.175; -435.000; -577.000
213.451;  -85.875; -778.000; -689.000
213.596;  -41.300; -455.000; -347.000
213.741;  -48.150; -448.000; -538.000
213.886;  -76.475; -498.000; -517.000
214.031;  -22.625; -294.000; -124.000
214.176;  -49.925; -408.000; -341.000
214.321;  -23.650; -296.000; -157.000
214.466;  -20.225; -163.000;  -43.000
214.611;   -4.775;  -61.000;  -10.000
214.756; -127.900; -948.000; -858.000
214.901;  -30.725; -388.000; -226.000
215.046; -135.350; -797.000; -825.000
215.191;   30.500;  128.000;   35.000
215.336;  -23.900; -157.000;  -19.000
215.480;  -66.675; -684.000; -505.000
215.625;   -7.025; -175.000;  -19.000
215.770;  -79.700; -757.000; -662.000
215.915;    4.175;   -5.000;  -97.000
216.060;    4.450; -113.000;  -21.000
216.205; -119.400; -731.000; -779.000
216.349;  -69.900; -470.000; -533.000
216.494; -138.400; -939.000; -867.000
216.639; -116.925; -823.000; -888.000
216.784;  -84.050; -577.000; -525.000
216.929;   54.375;  392.000;  281.000
217.073;  -10.575; -244.000;  -31.000
217.218;    9.475;   78.000;  -47.000
217.363;  -83.500; -656.000; -618.000
217.507;  -85.125; -623.000; -588.000
217.652; -116.975; -845.000; -874.000
217.797;  -87.150; -708.000; -659.000
217.942; -105.175; -856.000; -720.000
218.086;   68.800;  608.000;  539.000
218.231;  -23.400; -174.000;  -26.000
218.376;  -36.900; -337.000; -229.000
218.520;   -5.200;  -41.000;   96.000
218.665;  -27.275; -338.000; -204.000
218.810;  -42.850; -275.000; -233.000
218.954;   16.200;  201.000;   35.000
219.099; -104.125; -713.000; -963.000
219.243;  -76.625; -589.000; -554.000
219.388;  -32.825; -264.000; -136.000
219.532;   -1.475; -116.000; -116.000
219.677;  -77.825; -564.000; -521.000
219.822;   21.825;   33.000;   89.000
219.966;    8.825;   17.000;  -99.000
220.111;  -42.425; -328.000;  -40.000
220.255;  -90.825; -797.000; -750.000
220.400;   -9.575; -180.000; -146.000
220.544;  -69.300; -516.000; -450.000
220.689;  -51.750; -422.000; -451.000
220.833;  -16.025; -123.000;  -58.000
220.978;  -35.750; -393.000; -563.000
221.122;   28.425;  319.000;  307.000
221.267; -124.225; -906.000; -837.000
221.411;  -61.425; -478.000; -394.000
221.555;    4.775; -104.000;  -23.000
221.700;  -42.425; -329.000; -222.000
221.844;   32.825;  255.000;  272.000
221.989;  -37.475; -328.000; -311.000
222.133;  -30.750; -289.000; -307.000
222.277;   -5.725;    5.000;   78.000
222.422;   29.125;  227.000;  113.000
222.566;  -27.700; -381.000; -214.000
222.711;  -54.400; -414.000; -479.000
222.855;  -70.675; -643.000; -586.000
222.999;  -86.350; -642.000; -717.000
223.144;  -32.625; -195.000; -194.000
223.288;   58.750;  423.000;  251.000
223.432;   13.025;  184.000;  230.000
223.576;   21.250;  152.000;  -21.000
223.721;   54.000;  364.000;  273.000
223.865;  -60.775; -472.000; -475.000
224.009;  251.675; 1673.000; 1631.000
224.153;  -76.650; -660.000; -671.000
224.298;  -63.700; -531.000; -489.000
224.442;   -9.050;  -74.000;  -33.000
224.586;  -22.450; -169.000; -106.000
224.730;  -94.050; -858.000; -670.000
224.875; -106.275; -739.000; -688.000
225.019;   16.050;  102.000;  188.000
225.163;   60.075;  208.000;  341.000
225.307;   18.925;   97.000;  -91.000
225.451;   64.825;  360.000;  481.000
225.595;   37.850;  264.000;  176.000
225.739;  -11.625; -170.000;  -94.000
225.884;   13.925;   86.000;    5.000
226.028;  -94.225; -760.000; -626.000
226.172;  -42.700; -260.000; -273.000
226.316; -110.750; -941.000; -902.000
226.460;  -66.475; -645.000; -493.000
226.604;  -61.950; -406.000; -400.000
226.748; -105.975; -836.000; -733.000
226.892;  -39.675; -227.000; -181.000
227.036;  -50.800; -537.000; -447.000
227.180;  -44.400; -551.000; -375.000
227.324;  -67.300; -561.000; -580.000
227.468; -111.850; -819.000; -717.000
227.612;   20.975;  242.000;  -28.000
227.756;  -92.275; -845.000; -698.000
227.900;   55.950;  342.000;  441.000
228.044;  -40.550; -509.000; -290.000
228.188;   77.100;  448.000;  568.000
228.332;  -83.950; -546.000; -472.000
228.476;  -23.000; -223.000; -149.000
228.620;  -18.850; -210.000; -150.000
228.764;   64.375;  431.000;  349.000
228.908;  -23.075; -155.000;   30.000
229.052;  -55.650; -615.000; -528.000
229.195;  -14.400; -172.000;   13.000
229.339;  -20.325; -235.000; -305.000
229.483;  -23.200;    5.000; -162.000
229.627;    4.900; -156.000;  139.000
229.771;  -44.625; -218.000; -294.000
229.915;    9.975;  230.000;   79.000
230.059;  -99.275; -648.000; -663.000
230.202;  -35.750; -370.000; -317.000
230.346;  -13.200; -107.000;  107.000
230.490;  -64.025; -489.000; -521.000
230.634; -110.375; -736.000; -553.000
230.777;   75.225;  478.000;  509.000
230.921;  -52.100; -450.000; -359.000
231.065;  -49.000; -246.000; -286.000
231.209;   24.050;  261.000;  265.000
231.352;   30.525;   54.000;   40.000
231.496;   31.475;  568.000;  188.000
231.640;  -81.750; -693.000; -621.000
231.783;   66.225;  546.000;  525.000
231.927;  -45.225; -294.000; -365.000
232.071; -118.250; -962.000; -736.000
232.214; -122.050; -980.000; -764.000
232.358; -110.550; -683.000; -599.000
232.502;   14.750;  -19.000;    7.000
232.645; -130.925;-1090.000; -927.000
232.789;  -20.650; -257.000; -218.000
232.933;  -44.525; -407.000; -224.000
233.076; -120.125;-1038.000; -897.000
233.220; -105.700; -752.000; -777.000
233.363;  -75.625; -669.000; -477.000
233.507;   63.500;  371.000;  129.000
233.650;  -91.150; -764.000; -834.000
233.794;   44.600;  438.000;  461.000
233.938;  -63.225; -530.000; -362.000
234.081;  -13.100;  -93.000;   31.000
234.225;  -57.625; -631.000; -539.000
234.368; -107.050; -773.000; -723.000
234.512;  -26.975; -385.000; -299.000
234.655;  -85.600; -582.000; -555.000
234.798;  -66.700; -493.000; -466.000
234.942; -123.325; -884.000;-1002.000
235.085;  -72.300; -651.000; -443.000
235.229;  -68.375; -405.000; -410.000
235.372;  -47.975; -247.000; -191.000
235.516;  -58.350; -397.000; -321.000
235.659;   18.650;   92.000;  121.000
235.802;   -7.050;  -38.000;  -22.000
235.946;   22.350;  335.000;  215.000
236.089;   27.250;  126.000;  250.000
236.233;   56.350;  275.000;  298.000
236.376;  -48.625; -235.000; -378.000
236.519;  -44.800; -297.000; -319.000
236.663;  -33.700; -215.000; -117.000
236.806; -131.550;-1029.000; -999.000
236.949;   80.150;  543.000;  431.000
237.092;   70.775;  412.000;  391.000
237.236;  -81.025; -589.000; -502.000
237.379;   66.725;  352.000;  428.000
237.522; -121.500; -879.000; -768.000
237.666;  -24.725; -271.000;   18.000
237.809; -111.550; -851.000; -823.000
237.952;   38.550;  469.000;  271.000
238.095;  -67.975; -447.000; -442.000
238.238;   85.150;  688.000;  700.000
238.382;   11.500;  166.000;  103.000
238.525;  -70.700; -598.000; -511.000
238.668; -141.375;-1060.000; -985.000
238.811;  -86.775; -638.000; -643.000
238.954;  -53.350; -483.000; -334.000
239.097;  106.250;  617.000;  664.000
239.241;   31.825;  394.000;  326.000
239.384;  -37.150; -254.000; -214.000
239.527;  -68.300; -424.000; -224.000
239.670; -147.950; -994.000;-1091.000
239.813; -107.575; -696.000; -658.000
239.956;   83.525;  579.000;  473.000
240.099; -117.375; -778.000; -725.000
240.242;   64.625;  428.000;  432.000
240.385;   59.350;  466.000;  450.000
240.528;  -74.925; -706.000; -473.000
240.671;   15.500;  189.000;  134.000
240.814;  -43.650; -441.000; -158.000
240.957;  -88.850; -767.000; -578.000
241.100;  -83.450; -779.000; -755.000
241.243; -148.375;-1234.000; -893.000
241.386;  -73.200; -508.000; -379.000
241.529;  -81.975; -735.000; -547.000
241.672;  -66.625; -566.000; -495.000
241.815; -126.850; -832.000; -808.000
241.958;  -12.275; -125.000; -182.000
242.101;  -69.475; -545.000; -390.000
242.244;  -39.075; -270.000; -325.000
242.387;  -34.225; -304.000; -246.000
242.530;   77.300;  470.000;  134.000
242.673;  -41.375; -381.000; -309.000
242.815; -129.425; -925.000; -899.000
242.958;  -66.800; -482.000; -381.000
243.101;   20.775;  132.000;  187.000
243.244;  -86.100; -564.000; -521.000
243.387;  -38.250; -313.000; -316.000
243.530;  -93.750; -657.000; -674.000
243.672;   10.050;   43.000;  -92.000
243.815;  -52.650; -355.000; -283.000
243.958;    9.450;   98.000;  -26.000
244.101;    6.850;   59.000;  -16.000
244.243;    3.350;  -47.000;  101.000
244.386; -126.200; -761.000; -630.000
244.529;  -12.050; -132.000; -139.000
244.672; -154.600;-1154.000; -951.000
244.814;  -94.150; -621.000; -794.000
244.957;  -39.125; -380.000; -304.000
245.100;  -81.250; -489.000; -489.000
245.242;  -61.175; -387.000; -374.000
245.385;    0.725;  -59.000;  -39.000
245.528; -121.125; -871.000; -705.000
245.670;  104.025;  612.000;  634.000
245.813;  -89.375; -599.000; -547.000
245.956;  -34.450; -324.000; -275.000
246.098;  -76.825; -508.000; -650.000
246.241;    1.650;  194.000;   48.000
246.383;   -6.750; -119.000;  -73.000
246.526;  -75.250; -454.000; -525.000
246.669; -117.400; -889.000; -780.000
246.811;   24.050;  172.000;   -1.000
246.954;  -69.075; -512.000; -426.000
247.096;  -21.850;  -84.000;   -6.000
247.239;  -70.975; -482.000; -445.000
247.381;  -58.850; -647.000; -488.000
247.524;   82.475;  645.000;  679.000
247.666;   -7.250;   58.000;   11.000
247.809; -117.625; -887.000; -691.000
247.951;   14.200;  -75.000;  138.000
248.094;   40.800;  432.000;  308.000
248.236; -165.300;-1262.000;-1238.000
248.378;   -2.400; -356.000;  -81.000
248.521;   -4.500; -334.000; -337.000
248.663;  -23.300; -236.000; -267.000
248.806;  -16.150; -300.000; -266.000
248.948;  -90.875; -886.000; -763.000
249.090;  -43.875; -428.000; -398.000
249.233;  -41.075; -344.000; -381.000
249.375;  -71.475; -474.000; -451.000
249.518;   -9.275;  -83.000; -133.000
249.660;   -7.775; -103.000;    3.000
249.802; -159.475;-1303.000;-1189.000
249.945;  -89.800; -612.000; -540.000
250.087; -110.400; -834.000; -768.000
250.229;  -39.050; -362.000; -480.000
250.371;  -77.000; -494.000; -439.000
250.514;  -45.225; -310.000; -244.000
250.656;  -60.550;   69.000;  102.000
250.798; -118.025; -849.000; -800.000
250.940;  -59.050; -322.000; -322.000
251.083;  -14.725; -335.000; -111.000
251.225;   70.925;  338.000;  310.000
251.367;  -31.925; -274.000; -373.000
251.509;  -38.325; -265.000; -210.000
251.651;  -97.900; -731.000; -671.000
251.794;   90.825;  538.000;  632.000
251.936; -100.850; -821.000; -747.000
252.078;  -66.850; -540.000; -461.000
252.220;  -78.875; -645.000; -477.000
252.362;   72.000;  344.000;  462.000
252.504;  -74.150; -677.000; -584.000
252.646; -103.275; -875.000; -722.000
252.788;   -3.150;   14.000; -128.000
252.931;  -25.475; -257.000; -253.000
253.073;  -38.575; -376.000; -317.000
253.215;  -12.200;  141.000;  122.000
253.357;   -7.975;   82.000; -153.000
253.499;  -50.375; -374.000; -234.000
253.641;  -83.625; -749.000; -594.000
253.783;  -95.375; -609.000; -527.000
253.925;  -84.025; -586.000; -591.000
254.067; -112.250; -744.000; -667.000
254.209;  -24.675; -391.000; -259.000
254.351; -140.325; -865.000; -883.000
254.493;  -68.825; -441.000; -417.000
254.635; -115.775; -936.000; -818.000
254.777;  -98.625; -752.000; -687.000
254.918;  -67.625; -512.000; -430.000
255.060;  -55.075; -551.000; -395.000
255.202;  -61.725; -473.000; -261.000
255.344;  -74.250; -658.000; -455.000
255.486;  -63.275; -471.000; -406.000
255.628; -100.900; -780.000; -781.000
255.770;  -91.025; -676.000; -536.000
255.912;  -62.150; -559.000; -468.000
256.053; -100.150; -730.000; -508.000
256.195;  158.900; 1008.000;  903.000
256.337;  -95.225; -861.000; -595.000
256.479;   67.600;  532.000;  416.000
256.621;  -44.375; -394.000; -212.000
256.762;  -88.775; -789.000; -742.000
256.904;   63.525;  485.000;  487.000
257.046;  -24.300; -381.000; -271.000
257.188;  -40.850; -351.000; -264.000
257.329;  -61.450; -525.000; -464.000
257.471; -114.025; -939.000; -807.000
257.613;  -66.225; -584.000; -498.000
257.755; -137.625;-1073.000; -982.000
257.896;   32.300;  286.000;  392.000
258.038;  -76.225; -403.000; -352.000
258.180;  -34.750; -354.000; -279.000
258.321;  -97.475; -581.000; -457.000
258.463;  -10.475;  -71.000;  133.000
258.605;  -80.075; -562.000; -570.000
258.746; -109.875; -886.000; -772.000
258.888; -153.050;-1026.000;-1020.000
259.029;   23.175;  121.000;   -8.000
259.171;  -86.275; -614.000; -550.000
259.313;   11.425;  -49.000;  -47.000
259.454;  -76.850; -536.000; -414.000
259.596;  -54.650; -483.000; -390.000
259.737;  -72.500; -590.000; -474.000
259.879;   37.100;  217.000;  311.000
260.020;  106.150;  901.000;  636.000
260.162;  -17.875; -146.000; -253.000
260.303; -113.050; -768.000; -687.000
260.445;  -80.025; -609.000; -613.000
260.586;   33.650;  392.000;  157.000
260.728;  -39.125; -360.000; -248.000
260.869; -109.150; -350.000; -343.000
261.011;   86.475;  706.000;  537.000
261.152;  -62.175; -479.000; -319.000
261.293;  -80.775; -576.000; -595.000
261.435;  -30.700; -219.000; -184.000
261.576;  -51.900; -455.000; -325.000
261.718;   52.250;  420.000;  470.000
261.859; -131.100; -940.000; -949.000
262.000; -129.800; -951.000;-1016.000
262.142;  -31.750;  -52.000;  -60.000
262.283; -128.675; -808.000; -691.000
262.424;  -83.625; -666.000; -625.000
262.566; -145.050;-1161.000; -983.000
262.707; -111.875; -840.000; -830.000
262.848; -122.050; -769.000; -726.000
262.990;  -55.000; -362.000; -345.000
263.131;   85.025;  650.000;  681.000
263.272;   -7.175;  -61.000;  -41.000
263.413;  -98.625; -589.000; -561.000
263.555;  -60.625; -669.000; -143.000
263.696;  -88.850; -550.000; -641.000
263.837;  -61.075; -449.000; -551.000
263.978;    7.850;   -5.000;  -77.000
264.119;  -43.325; -283.000; -264.000
264.261; -112.775; -847.000; -630.000
264.402;    8.025;   33.000;   40.000
264.543;  -78.700; -509.000; -524.000
264.684;  -17.525;   61.000;  -50.000
264.825;  -63.350; -816.000; -538.000
264.966;   -1.350;  -84.000;  -67.000
265.107; -104.875; -646.000; -670.000
265.248; -122.050; -825.000; -812.000
265.390;  -12.600;  152.000;   -9.000
265.531;   -9.625; -238.000; -107.000
265.672;  -95.475; -557.000; -630.000
265.813;   67.550;  563.000;  439.000
265.954; -146.450; -959.000; -940.000
266.095;  -14.550; -372.000; -322.000
266.236; -103.825; -686.000; -548.000
266.377;  -27.975; -243.000; -297.000
266.518;  -69.150; -619.000; -547.000
266.659;   28.550;  170.000;  268.000
266.800;    4.600;   83.000;   85.000
266.941;  -77.250; -487.000; -478.000
267.082;    0.200;  354.000;   99.000
267.223;  -55.725; -344.000; -273.000
267.364; -117.225; -892.000; -686.000
267.504;  -12.725;    3.000;  135.000
267.645;   -3.750;  160.000;   67.000
267.786;  -24.500; -147.000;  -86.000
267.927;  -63.000; -473.000; -379.000
268.068;  -27.250; -186.000;  -61.000
268.209;  -40.625; -175.000; -413.000
268.350;  -64.650; -388.000; -532.000
268.490;  -82.025; -648.000; -521.000
268.631;   40.450;  127.000;  225.000
268.772; -105.150; -874.000; -647.000
268.913;  -45.750; -328.000; -476.000
269.054;  -10.450; -117.000;   12.000
269.194;  -52.275; -418.000; -402.000
269.335; -153.000;-1137.000;-1074.000
269.476;  -10.725;   33.000;  -35.000
269.617;  -49.875; -347.000; -392.000
269.757;  -87.575; -713.000; -646.000
269.898; -113.900; -856.000; -613.000
270.039;  -63.250; -415.000; -405.000
270.180; -138.775; -952.000; -816.000
270.320;  -23.375; -190.000; -250.000
