
Integration time [ms]: 100.000
Averaging Nr. [scans]: 40
Smoothing Nr. [pixels]: 0
Data measured with spectrometer [name]: 2101012U2
Wave   ;Sample   ;Dark     ;Reference
[nm]   ;[counts] ;[counts] ;[counts] 

197.733;   53.275;  516.000;  404.000
197.879;  -74.275; -610.000; -634.000
198.025;  -51.725; -475.000; -420.000
198.171;  -61.575; -602.000; -612.000
198.317;  -12.575; -401.000; -316.000
198.463;  -45.950; -655.000; -404.000
198.609;   36.200;  181.000; -137.000
198.755;  -70.650; -644.000; -410.000
198.901;  -64.975; -505.000; -424.000
199.047;  -62.450; -615.000; -488.000
199.193;  -42.475; -230.000; -468.000
199.339;  -34.200; -222.000; -369.000
199.485;   37.950;  330.000;  271.000
199.631;   12.950;  227.000;  310.000
199.777;  -54.425; -466.000; -398.000
199.923;  -55.375; -610.000; -424.000
200.069;    7.225; -141.000;  -58.000
200.215;   52.750;  128.000;  453.000
200.361;   37.900;  243.000;  477.000
200.507;  -60.450; -600.000; -373.000
200.653;  -19.850; -371.000; -194.000
200.798;  -29.150; -215.000; -125.000
200.944;  -15.200; -146.000;  -41.000
201.090;   42.425;   61.000;  222.000
201.236;   -1.600; -116.000; -158.000
201.382;  128.125;  874.000;  903.000
201.528;    0.725;  -58.000;  -48.000
201.674;  -52.200; -386.000; -293.000
201.819;  -61.550; -540.000; -439.000
201.965;  -86.050; -699.000; -447.000
202.111;  -30.350; -273.000; -226.000
202.257;  -39.125; -250.000; -238.000
202.402;   17.950;   13.000;  -36.000
202.548;  -17.700; -169.000; -116.000
202.694;   78.725;  410.000; -183.000
202.840;  -65.450; -603.000; -531.000
202.985;  -61.100; -681.000; -639.000
203.131; -100.050; -832.000; -666.000
203.277;  -12.700; -199.000; -262.000
203.423;  -54.100; -434.000; -520.000
203.568;  -36.050; -462.000; -237.000
203.714;  -52.050; -535.000; -542.000
203.860;  -80.725; -682.000; -641.000
204.005;    9.125;  112.000;  167.000
204.151;   86.975;  561.000;  556.000
204.296;  -47.000; -354.000; -221.000
204.442;  -80.675; -600.000; -547.000
204.588;  -66.100; -592.000; -579.000
204.733;    4.625;  178.000;  168.000
204.879; -128.975;-1018.000; -822.000
205.025;    3.150;  -99.000;  126.000
205.170;   12.650;  -17.000;   94.000
205.316;   88.425;  438.000;  661.000
205.461;  -72.350; -698.000; -554.000
205.607;   87.275;  609.000;  665.000
205.752;  -75.225; -626.000; -551.000
205.898;  -47.675; -501.000; -391.000
206.043;  -60.575; -578.000; -506.000
206.189;  -41.825; -243.000; -285.000
206.334;   76.650;  554.000;  606.000
206.480;   66.825;  409.000;  239.000
206.625;  -77.975; -529.000; -552.000
206.771;  -51.525; -451.000; -373.000
206.916;  -34.225; -210.000; -537.000
207.062;  -62.600; -545.000; -591.000
207.207;  -67.100; -546.000; -443.000
207.353;   52.100;  185.000;  460.000
207.498;   18.800;  196.000;   85.000
207.643;  -55.775; -501.000; -370.000
207.789; -127.000;-1069.000; -910.000
207.934;  -90.900; -665.000; -713.000
208.080;  -17.675; -154.000;   66.000
208.225;  -11.975;  -22.000;  -57.000
208.370;  -90.800; -727.000; -619.000
208.516;  -66.575; -741.000; -487.000
208.661;  -30.475; -127.000;  -69.000
208.806;  -11.700; -165.000; -171.000
208.952; -118.825;-1044.000; -731.000
209.097;   63.200;  378.000;  349.000
209.242;  -45.025; -307.000; -382.000
209.387;   60.925;  392.000;  350.000
209.533;  -50.400; -321.000; -350.000
209.678;   73.925;  472.000;  543.000
209.823;  -46.575; -408.000; -310.000
209.969;  -94.700; -860.000; -757.000
210.114;  -97.575; -907.000; -719.000
210.259; -117.650; -939.000; -889.000
210.404;  -10.500; -171.000;  103.000
210.549;   27.050;  108.000;    3.000
210.695;  -12.725;   -3.000;  -95.000
210.840;   35.050;   94.000;   67.000
210.985;  -65.625; -484.000; -303.000
211.130;   58.825;  268.000;  406.000
211.275;   13.425;  207.000;  199.000
211.420;  -41.200; -300.000; -289.000
211.566;  -53.575; -536.000; -489.000
211.711;   30.675;  218.000;  157.000
211.856;  -58.375; -545.000; -519.000
212.001;    8.525;  151.000;   44.000
212.146;   36.075;  153.000;   49.000
212.291;  -26.200; -210.000; -186.000
212.436;  -29.600; -280.000;   -6.000
212.581;  -81.725; -685.000; -653.000
212.726;  -69.725; -487.000; -538.000
212.871;  -42.775; -552.000; -217.000
213.016; -151.225;-1172.000;-1029.000
213.161;   60.675;  406.000;  291.000
213.306;  -64.025; -435.000; -577.000
213.451;  -90.250; -778.000; -689.000
213.596;  -50.175; -455.000; -347.000
213.741;  -45.800; -448.000; -538.000
213.886;  -71.300; -498.000; -517.000
214.031;  -21.375; -294.000; -124.000
214.176;  -42.800; -408.000; -341.000
214.321;  -33.825; -296.000; -157.000
214.466;   -8.000; -163.000;  -43.000
214.611;  -16.450;  -61.000;  -10.000
214.756; -116.325; -948.000; -858.000
214.901;  -22.525; -388.000; -226.000
215.046; -113.050; -797.000; -825.000
215.191;   15.775;  128.000;   35.000
215.336;  -13.375; -157.000;  -19.000
215.480;  -65.900; -684.000; -505.000
215.625;  -19.200; -175.000;  -19.000
215.770;  -81.825; -757.000; -662.000
215.915;   -5.500;   -5.000;  -97.000
216.060;  -23.000; -113.000;  -21.000
216.205; -107.325; -731.000; -779.000
216.349;  -82.525; -470.000; -533.000
216.494; -130.325; -939.000; -867.000
216.639; -120.400; -823.000; -888.000
216.784;  -82.075; -577.000; -525.000
216.929;   45.150;  392.000;  281.000
217.073;   -8.875; -244.000;  -31.000
217.218;   -0.025;   78.000;  -47.000
217.363;  -72.975; -656.000; -618.000
217.507;  -80.500; -623.000; -588.000
217.652; -121.350; -845.000; -874.000
217.797;  -81.425; -708.000; -659.000
217.942; -106.875; -856.000; -720.000
218.086;   63.000;  608.000;  539.000
218.231;  -19.725; -174.000;  -26.000
218.376;  -31.475; -337.000; -229.000
218.520;    8.175;  -41.000;   96.000
218.665;  -34.775; -338.000; -204.000
218.810;  -44.000; -275.000; -233.000
218.954;   14.425;  201.000;   35.000
219.099;  -96.325; -713.000; -963.000
219.243;  -69.725; -589.000; -554.000
219.388;  -29.625; -264.000; -136.000
219.532;    0.350; -116.000; -116.000
219.677;  -77.900; -564.000; -521.000
219.822;    3.050;   33.000;   89.000
219.966;   -6.325;   17.000;  -99.000
220.111;  -41.600; -328.000;  -40.000
220.255; -100.700; -797.000; -750.000
220.400;  -23.175; -180.000; -146.000
220.544;  -57.300; -516.000; -450.000
220.689;  -67.900; -422.000; -451.000
220.833;  -27.400; -123.000;  -58.000
220.978;  -52.725; -393.000; -563.000
221.122;   29.150;  319.000;  307.000
221.267; -116.475; -906.000; -837.000
221.411;  -61.275; -478.000; -394.000
221.555;   -7.525; -104.000;  -23.000
221.700;  -47.000; -329.000; -222.000
221.844;   23.775;  255.000;  272.000
221.989;  -51.100; -328.000; -311.000
222.133;  -39.525; -289.000; -307.000
222.277;   -7.025;    5.000;   78.000
222.422;   22.750;  227.000;  113.000
222.566;  -31.725; -381.000; -214.000
222.711;  -59.950; -414.000; -479.000
222.855;  -83.050; -643.000; -586.000
222.999;  -86.050; -642.000; -717.000
223.144;  -35.700; -195.000; -194.000
223.288;   37.975;  423.000;  251.000
223.432;   29.025;  184.000;  230.000
223.576;    8.175;  152.000;  -21.000
223.721;   34.425;  364.000;  273.000
223.865;  -57.525; -472.000; -475.000
224.009;  232.800; 1673.000; 1631.000
224.153;  -92.700; -660.000; -671.000
224.298;  -59.575; -531.000; -489.000
224.442;   -8.600;  -74.000;  -33.000
224.586;   -7.875; -169.000; -106.000
224.730;  -94.850; -858.000; -670.000
224.875; -109.550; -739.000; -688.000
225.019;   -6.275;  102.000;  188.000
225.163;   48.000;  208.000;  341.000
225.307;   22.350;   97.000;  -91.000
225.451;   55.125;  360.000;  481.000
225.595;   37.175;  264.000;  176.000
225.739;    3.025; -170.000;  -94.000
225.884;   -3.000;   86.000;    5.000
226.028;  -98.025; -760.000; -626.000
226.172;  -37.800; -260.000; -273.000
226.316; -114.375; -941.000; -902.000
226.460;  -61.500; -645.000; -493.000
226.604;  -50.200; -406.000; -400.000
226.748;  -99.550; -836.000; -733.000
226.892;  -34.775; -227.000; -181.000
227.036;  -51.625; -537.000; -447.000
227.180;  -54.700; -551.000; -375.000
227.324;  -68.300; -561.000; -580.000
227.468; -113.775; -819.000; -717.000
227.612;   10.875;  242.000;  -28.000
227.756;  -93.750; -845.000; -698.000
227.900;   52.900;  342.000;  441.000
228.044;  -58.625; -509.000; -290.000
228.188;   56.075;  448.000;  568.000
228.332;  -88.475; -546.000; -472.000
228.476;  -34.025; -223.000; -149.000
228.620;  -25.875; -210.000; -150.000
228.764;   62.500;  431.000;  349.000
228.908;  -12.500; -155.000;   30.000
229.052;  -55.300; -615.000; -528.000
229.195;   -7.675; -172.000;   13.000
229.339;  -33.950; -235.000; -305.000
229.483;  -29.050;    5.000; -162.000
229.627;   10.400; -156.000;  139.000
229.771;  -46.925; -218.000; -294.000
229.915;    9.150;  230.000;   79.000
230.059;  -73.600; -648.000; -663.000
230.202;  -37.600; -370.000; -317.000
230.346;   -9.175; -107.000;  107.000
230.490;  -63.750; -489.000; -521.000
230.634; -109.225; -736.000; -553.000
230.777;   65.800;  478.000;  509.000
230.921;  -56.325; -450.000; -359.000
231.065;  -36.600; -246.000; -286.000
231.209;   25.875;  261.000;  265.000
231.352;   18.250;   54.000;   40.000
231.496;   21.450;  568.000;  188.000
231.640;  -75.125; -693.000; -621.000
231.783;   53.175;  546.000;  525.000
231.927;  -48.250; -294.000; -365.000
232.071; -101.750; -962.000; -736.000
232.214; -109.550; -980.000; -764.000
232.358;  -91.950; -683.000; -599.000
232.502;   -3.925;  -19.000;    7.000
232.645; -128.225;-1090.000; -927.000
232.789;  -23.100; -257.000; -218.000
232.933;  -49.650; -407.000; -224.000
233.076; -134.775;-1038.000; -897.000
233.220; -103.525; -752.000; -777.000
233.363;  -66.850; -669.000; -477.000
233.507;   59.700;  371.000;  129.000
233.650; -100.825; -764.000; -834.000
233.794;   32.650;  438.000;  461.000
233.938;  -59.050; -530.000; -362.000
234.081;  -31.850;  -93.000;   31.000
234.225;  -70.250; -631.000; -539.000
234.368; -114.200; -773.000; -723.000
234.512;  -61.250; -385.000; -299.000
234.655;  -87.775; -582.000; -555.000
234.798;  -64.375; -493.000; -466.000
234.942; -117.600; -884.000;-1002.000
235.085;  -85.325; -651.000; -443.000
235.229;  -65.450; -405.000; -410.000
235.372;  -53.300; -247.000; -191.000
235.516;  -67.325; -397.000; -321.000
235.659;    5.550;   92.000;  121.000
235.802;  -14.250;  -38.000;  -22.000
235.946;   23.475;  335.000;  215.000
236.089;   28.750;  126.000;  250.000
236.233;   51.075;  275.000;  298.000
236.376;  -41.050; -235.000; -378.000
236.519;  -55.075; -297.000; -319.000
236.663;  -25.450; -215.000; -117.000
236.806; -132.125;-1029.000; -999.000
236.949;   52.375;  543.000;  431.000
237.092;   63.275;  412.000;  391.000
237.236;  -77.000; -589.000; -502.000
237.379;   58.625;  352.000;  428.000
237.522; -118.075; -879.000; -768.000
237.666;  -23.275; -271.000;   18.000
237.809; -128.100; -851.000; -823.000
237.952;   42.050;  469.000;  271.000
238.095;  -59.275; -447.000; -442.000
238.238;   70.925;  688.000;  700.000
238.382;   12.450;  166.000;  103.000
238.525;  -76.375; -598.000; -511.000
238.668; -137.725;-1060.000; -985.000
238.811;  -78.575; -638.000; -643.000
238.954;  -48.475; -483.000; -334.000
239.097;   95.825;  617.000;  664.000
239.241;   21.825;  394.000;  326.000
239.384;  -36.450; -254.000; -214.000
239.527;  -55.650; -424.000; -224.000
239.670; -143.050; -994.000;-1091.000
239.813; -118.000; -696.000; -658.000
239.956;   71.300;  579.000;  473.000
240.099; -119.125; -778.000; -725.000
240.242;   55.550;  428.000;  432.000
240.385;   45.750;  466.000;  450.000
240.528;  -71.975; -706.000; -473.000
240.671;   33.775;  189.000;  134.000
240.814;  -35.750; -441.000; -158.000
240.957; -112.250; -767.000; -578.000
241.100;  -91.050; -779.000; -755.000
241.243; -137.525;-1234.000; -893.000
241.386;  -71.550; -508.000; -379.000
241.529;  -78.425; -735.000; -547.000
241.672;  -61.225; -566.000; -495.000
241.815; -106.625; -832.000; -808.000
241.958;  -29.050; -125.000; -182.000
242.101;  -75.175; -545.000; -390.000
242.244;  -45.575; -270.000; -325.000
242.387;  -36.725; -304.000; -246.000
242.530;   47.800;  470.000;  134.000
242.673;  -36.650; -381.000; -309.000
242.815; -117.500; -925.000; -899.000
242.958;  -57.775; -482.000; -381.000
243.101;   18.275;  132.000;  187.000
243.244;  -84.150; -564.000; -521.000
243.387;  -50.775; -313.000; -316.000
243.530; -104.525; -657.000; -674.000
243.672;  -14.325;   43.000;  -92.000
243.815;  -49.800; -355.000; -283.000
243.958;   -3.875;   98.000;  -26.000
244.101;   -1.600;   59.000;  -16.000
244.243;  -22.450;  -47.000;  101.000
244.386;  -95.800; -761.000; -630.000
244.529;  -23.675; -132.000; -139.000
244.672; -143.750;-1154.000; -951.000
244.814;  -89.625; -621.000; -794.000
244.957;  -57.250; -380.000; -304.000
245.100;  -85.800; -489.000; -489.000
245.242;  -50.525; -387.000; -374.000
245.385;   -3.325;  -59.000;  -39.000
245.528; -123.000; -871.000; -705.000
245.670;   76.800;  612.000;  634.000
245.813;  -94.750; -599.000; -547.000
245.956;  -29.950; -324.000; -275.000
246.098;  -82.050; -508.000; -650.000
246.241;   -4.400;  194.000;   48.000
246.383;  -15.125; -119.000;  -73.000
246.526;  -72.025; -454.000; -525.000
246.669; -115.975; -889.000; -780.000
246.811;   12.800;  172.000;   -1.000
246.954;  -65.700; -512.000; -426.000
247.096;  -28.875;  -84.000;   -6.000
247.239;  -78.300; -482.000; -445.000
247.381;  -67.525; -647.000; -488.000
247.524;   81.650;  645.000;  679.000
247.666;  -12.700;   58.000;   11.000
247.809; -111.675; -887.000; -691.000
247.951;   -3.300;  -75.000;  138.000
248.094;   21.550;  432.000;  308.000
248.236; -157.975;-1262.000;-1238.000
248.378;    9.225; -356.000;  -81.000
248.521;  -17.600; -334.000; -337.000
248.663;  -50.375; -236.000; -267.000
248.806;  -21.050; -300.000; -266.000
248.948;  -88.350; -886.000; -763.000
249.090;  -41.875; -428.000; -398.000
249.233;  -44.975; -344.000; -381.000
249.375;  -72.825; -474.000; -451.000
249.518;  -32.350;  -83.000; -133.000
249.660;   -3.200; -103.000;    3.000
249.802; -163.450;-1303.000;-1189.000
249.945;  -69.950; -612.000; -540.000
250.087; -113.700; -834.000; -768.000
250.229;  -53.825; -362.000; -480.000
250.371;  -66.675; -494.000; -439.000
250.514;  -49.450; -310.000; -244.000
250.656;    0.750;   69.000;  102.000
250.798; -122.225; -849.000; -800.000
250.940;  -63.975; -322.000; -322.000
251.083;  -27.775; -335.000; -111.000
251.225;   51.325;  338.000;  310.000
251.367;  -24.525; -274.000; -373.000
251.509;  -34.850; -265.000; -210.000
251.651;  -87.575; -731.000; -671.000
251.794;   49.275;  538.000;  632.000
251.936; -109.750; -821.000; -747.000
252.078;  -66.075; -540.000; -461.000
252.220;  -77.125; -645.000; -477.000
252.362;   81.000;  344.000;  462.000
252.504;  -71.800; -677.000; -584.000
252.646; -116.450; -875.000; -722.000
252.788;  -12.350;   14.000; -128.000
252.931;  -40.500; -257.000; -253.000
253.073;  -42.125; -376.000; -317.000
253.215;    0.525;  141.000;  122.000
253.357;  -17.350;   82.000; -153.000
253.499;  -53.800; -374.000; -234.000
253.641;  -95.625; -749.000; -594.000
253.783;  -88.550; -609.000; -527.000
253.925;  -94.075; -586.000; -591.000
254.067; -113.750; -744.000; -667.000
254.209;  -31.950; -391.000; -259.000
254.351; -132.575; -865.000; -883.000
254.493;  -59.975; -441.000; -417.000
254.635; -123.450; -936.000; -818.000
254.777;  -99.925; -752.000; -687.000
254.918;  -63.725; -512.000; -430.000
255.060;  -60.625; -551.000; -395.000
255.202;  -52.925; -473.000; -261.000
255.344;  -88.075; -658.000; -455.000
255.486;  -73.325; -471.000; -406.000
255.628;  -87.050; -780.000; -781.000
255.770;  -75.750; -676.000; -536.000
255.912;  -67.825; -559.000; -468.000
256.053;  -94.325; -730.000; -508.000
256.195;  150.950; 1008.000;  903.000
256.337; -103.600; -861.000; -595.000
256.479;   59.625;  532.000;  416.000
256.621;  -48.400; -394.000; -212.000
256.762;  -93.325; -789.000; -742.000
256.904;   45.275;  485.000;  487.000
257.046;  -53.350; -381.000; -271.000
257.188;  -35.450; -351.000; -264.000
257.329;  -73.125; -525.000; -464.000
257.471; -112.725; -939.000; -807.000
257.613;  -63.050; -584.000; -498.000
257.755; -153.675;-1073.000; -982.000
257.896;   24.325;  286.000;  392.000
258.038;  -69.225; -403.000; -352.000
258.180;  -46.450; -354.000; -279.000
258.321;  -89.725; -581.000; -457.000
258.463;   -4.975;  -71.000;  133.000
258.605;  -80.725; -562.000; -570.000
258.746; -103.200; -886.000; -772.000
258.888; -141.050;-1026.000;-1020.000
259.029;   12.275;  121.000;   -8.000
259.171;  -94.200; -614.000; -550.000
259.313;    6.275;  -49.000;  -47.000
259.454;  -72.800; -536.000; -414.000
259.596;  -59.275; -483.000; -390.000
259.737;  -79.625; -590.000; -474.000
259.879;   33.050;  217.000;  311.000
260.020;   91.325;  901.000;  636.000
260.162;  -31.525; -146.000; -253.000
260.303; -117.850; -768.000; -687.000
260.445;  -90.875; -609.000; -613.000
260.586;   23.200;  392.000;  157.000
260.728;  -36.025; -360.000; -248.000
260.869; -109.025; -350.000; -343.000
261.011;   71.275;  706.000;  537.000
261.152;  -62.600; -479.000; -319.000
261.293;  -70.650; -576.000; -595.000
261.435;  -39.475; -219.000; -184.000
261.576;  -52.975; -455.000; -325.000
261.718;   57.950;  420.000;  470.000
261.859; -136.950; -940.000; -949.000
262.000; -136.350; -951.000;-1016.000
262.142;  -30.275;  -52.000;  -60.000
262.283; -103.525; -808.000; -691.000
262.424;  -90.850; -666.000; -625.000
262.566; -149.650;-1161.000; -983.000
262.707; -104.150; -840.000; -830.000
262.848; -125.175; -769.000; -726.000
262.990;  -62.425; -362.000; -345.000
263.131;   77.125;  650.000;  681.000
263.272;   -5.825;  -61.000;  -41.000
263.413;  -95.275; -589.000; -561.000
263.555;  -80.925; -669.000; -143.000
263.696;  -84.150; -550.000; -641.000
263.837;  -65.950; -449.000; -551.000
263.978;   -1.525;   -5.000;  -77.000
264.119;  -41.700; -283.000; -264.000
264.261; -121.550; -847.000; -630.000
264.402;    0.700;   33.000;   40.000
264.543;  -85.775; -509.000; -524.000
264.684;  -17.100;   61.000;  -50.000
264.825;  -71.975; -816.000; -538.000
264.966;  -19.100;  -84.000;  -67.000
265.107; -112.850; -646.000; -670.000
265.248; -124.700; -825.000; -812.000
265.390;   -7.200;  152.000;   -9.000
265.531;  -15.575; -238.000; -107.000
265.672;  -83.300; -557.000; -630.000
265.813;   59.950;  563.000;  439.000
265.954; -143.800; -959.000; -940.000
266.095;  -20.750; -372.000; -322.000
266.236; -100.100; -686.000; -548.000
266.377;  -49.325; -243.000; -297.000
266.518;  -71.025; -619.000; -547.000
266.659;   21.975;  170.000;  268.000
266.800;    3.050;   83.000;   85.000
266.941;  -78.200; -487.000; -478.000
267.082;   23.825;  354.000;   99.000
267.223;  -56.475; -344.000; -273.000
267.364; -111.775; -892.000; -686.000
267.504;  -23.650;    3.000;  135.000
267.645;   -9.450;  160.000;   67.000
267.786;  -31.675; -147.000;  -86.000
267.927;  -68.250; -473.000; -379.000
268.068;  -17.700; -186.000;  -61.000
268.209;  -33.475; -175.000; -413.000
268.350;  -54.150; -388.000; -532.000
268.490;  -78.125; -648.000; -521.000
268.631;   20.250;  127.000;  225.000
268.772; -116.075; -874.000; -647.000
268.913;  -58.525; -328.000; -476.000
269.054;  -11.800; -117.000;   12.000
269.194;  -51.275; -418.000; -402.000
269.335; -156.975;-1137.000;-1074.000
269.476;  -30.300;   33.000;  -35.000
269.617;  -51.250; -347.000; -392.000
269.757;  -86.750; -713.000; -646.000
269.898; -108.800; -856.000; -613.000
270.039;  -68.050; -415.000; -405.000
270.180; -147.025; -952.000; -816.000
270.320;  -29.700; -190.000; -250.000
