
Integration time [ms]: 100.000
Averaging Nr. [scans]: 40
Smoothing Nr. [pixels]: 0
Data measured with spectrometer [name]: 2101012U2
Wave   ;Sample   ;Dark     ;Reference
[nm]   ;[counts] ;[counts] ;[counts] 

197.733;   58.550;  516.000;  404.000
197.879;  -75.000; -610.000; -634.000
198.025;  -51.625; -475.000; -420.000
198.171;  -68.950; -602.000; -612.000
198.317;  -22.000; -401.000; -316.000
198.463;  -56.250; -655.000; -404.000
198.609;   22.350;  181.000; -137.000
198.755;  -72.675; -644.000; -410.000
198.901;  -55.100; -505.000; -424.000
199.047;  -62.450; -615.000; -488.000
199.193;  -30.625; -230.000; -468.000
199.339;  -48.600; -222.000; -369.000
199.485;   54.975;  330.000;  271.000
199.631;   11.450;  227.000;  310.000
199.777;  -52.475; -466.000; -398.000
199.923;  -53.800; -610.000; -424.000
200.069;  -16.525; -141.000;  -58.000
200.215;   52.200;  128.000;  453.000
200.361;   37.000;  243.000;  477.000
200.507;  -60.575; -600.000; -373.000
200.653;  -28.350; -371.000; -194.000
200.798;  -21.625; -215.000; -125.000
200.944;    2.725; -146.000;  -41.000
201.090;   37.250;   61.000;  222.000
201.236;   10.900; -116.000; -158.000
201.382;  146.550;  874.000;  903.000
201.528;  -16.625;  -58.000;  -48.000
201.674;  -31.075; -386.000; -293.000
201.819;  -65.325; -540.000; -439.000
201.965;  -74.775; -699.000; -447.000
202.111;  -30.125; -273.000; -226.000
202.257;  -36.650; -250.000; -238.000
202.402;   -1.725;   13.000;  -36.000
202.548;  -16.400; -169.000; -116.000
202.694;   83.950;  410.000; -183.000
202.840;  -64.475; -603.000; -531.000
202.985;  -76.850; -681.000; -639.000
203.131; -108.575; -832.000; -666.000
203.277;  -25.400; -199.000; -262.000
203.423;  -51.775; -434.000; -520.000
203.568;  -32.125; -462.000; -237.000
203.714;  -57.200; -535.000; -542.000
203.860;  -75.475; -682.000; -641.000
204.005;   17.825;  112.000;  167.000
204.151;   82.125;  561.000;  556.000
204.296;  -48.150; -354.000; -221.000
204.442;  -76.800; -600.000; -547.000
204.588;  -73.225; -592.000; -579.000
204.733;   20.550;  178.000;  168.000
204.879; -125.375;-1018.000; -822.000
205.025;   14.350;  -99.000;  126.000
205.170;   -4.650;  -17.000;   94.000
205.316;   78.125;  438.000;  661.000
205.461;  -86.875; -698.000; -554.000
205.607;   76.525;  609.000;  665.000
205.752;  -77.725; -626.000; -551.000
205.898;  -58.475; -501.000; -391.000
206.043;  -65.450; -578.000; -506.000
206.189;  -40.925; -243.000; -285.000
206.334;   69.275;  554.000;  606.000
206.480;   54.350;  409.000;  239.000
206.625;  -68.975; -529.000; -552.000
206.771;  -49.725; -451.000; -373.000
206.916;  -38.300; -210.000; -537.000
207.062;  -82.125; -545.000; -591.000
207.207;  -60.050; -546.000; -443.000
207.353;   45.000;  185.000;  460.000
207.498;   15.625;  196.000;   85.000
207.643;  -54.800; -501.000; -370.000
207.789; -121.300;-1069.000; -910.000
207.934;  -90.875; -665.000; -713.000
208.080;  -24.525; -154.000;   66.000
208.225;  -14.700;  -22.000;  -57.000
208.370;  -75.650; -727.000; -619.000
208.516;  -82.925; -741.000; -487.000
208.661;  -33.175; -127.000;  -69.000
208.806;  -30.400; -165.000; -171.000
208.952; -127.650;-1044.000; -731.000
209.097;   67.675;  378.000;  349.000
209.242;  -42.425; -307.000; -382.000
209.387;   51.975;  392.000;  350.000
209.533;  -53.350; -321.000; -350.000
209.678;   82.325;  472.000;  543.000
209.823;  -48.750; -408.000; -310.000
209.969; -101.675; -860.000; -757.000
210.114;  -98.100; -907.000; -719.000
210.259; -118.025; -939.000; -889.000
210.404;   -6.875; -171.000;  103.000
210.549;    7.825;  108.000;    3.000
210.695;   -8.050;   -3.000;  -95.000
210.840;   34.275;   94.000;   67.000
210.985;  -50.500; -484.000; -303.000
211.130;   67.825;  268.000;  406.000
211.275;   36.825;  207.000;  199.000
211.420;  -50.425; -300.000; -289.000
211.566;  -69.075; -536.000; -489.000
211.711;   12.525;  218.000;  157.000
211.856;  -65.275; -545.000; -519.000
212.001;   14.125;  151.000;   44.000
212.146;   24.475;  153.000;   49.000
212.291;  -29.525; -210.000; -186.000
212.436;  -25.175; -280.000;   -6.000
212.581;  -74.650; -685.000; -653.000
212.726;  -67.825; -487.000; -538.000
212.871;  -51.925; -552.000; -217.000
213.016; -130.025;-1172.000;-1029.000
213.161;   55.850;  406.000;  291.000
213.306;  -79.575; -435.000; -577.000
213.451;  -96.500; -778.000; -689.000
213.596;  -47.150; -455.000; -347.000
213.741;  -52.900; -448.000; -538.000
213.886;  -70.525; -498.000; -517.000
214.031;  -28.225; -294.000; -124.000
214.176;  -49.725; -408.000; -341.000
214.321;  -29.500; -296.000; -157.000
214.466;  -26.800; -163.000;  -43.000
214.611;   -5.500;  -61.000;  -10.000
214.756; -121.700; -948.000; -858.000
214.901;  -35.225; -388.000; -226.000
215.046; -123.850; -797.000; -825.000
215.191;   19.925;  128.000;   35.000
215.336;  -23.900; -157.000;  -19.000
215.480;  -68.575; -684.000; -505.000
215.625;   -3.700; -175.000;  -19.000
215.770;  -86.900; -757.000; -662.000
215.915;   -4.600;   -5.000;  -97.000
216.060;   -7.375; -113.000;  -21.000
216.205; -113.725; -731.000; -779.000
216.349;  -65.800; -470.000; -533.000
216.494; -116.500; -939.000; -867.000
216.639; -118.200; -823.000; -888.000
216.784;  -67.850; -577.000; -525.000
216.929;   60.600;  392.000;  281.000
217.073;    0.125; -244.000;  -31.000
217.218;    3.700;   78.000;  -47.000
217.363;  -83.425; -656.000; -618.000
217.507;  -72.700; -623.000; -588.000
217.652; -129.425; -845.000; -874.000
217.797;  -81.800; -708.000; -659.000
217.942; -103.900; -856.000; -720.000
218.086;   55.950;  608.000;  539.000
218.231;   -7.800; -174.000;  -26.000
218.376;  -26.300; -337.000; -229.000
218.520;   10.175;  -41.000;   96.000
218.665;  -34.750; -338.000; -204.000
218.810;  -36.525; -275.000; -233.000
218.954;   26.675;  201.000;   35.000
219.099; -111.425; -713.000; -963.000
219.243;  -63.050; -589.000; -554.000
219.388;  -38.475; -264.000; -136.000
219.532;   -7.275; -116.000; -116.000
219.677;  -75.525; -564.000; -521.000
219.822;   -1.550;   33.000;   89.000
219.966;    1.700;   17.000;  -99.000
220.111;  -30.075; -328.000;  -40.000
220.255;  -93.875; -797.000; -750.000
220.400;   -8.125; -180.000; -146.000
220.544;  -57.975; -516.000; -450.000
220.689;  -58.250; -422.000; -451.000
220.833;  -10.175; -123.000;  -58.000
220.978;  -42.150; -393.000; -563.000
221.122;   20.150;  319.000;  307.000
221.267; -126.500; -906.000; -837.000
221.411;  -59.850; -478.000; -394.000
221.555;   -2.625; -104.000;  -23.000
221.700;  -41.675; -329.000; -222.000
221.844;   21.675;  255.000;  272.000
221.989;  -44.775; -328.000; -311.000
222.133;  -41.825; -289.000; -307.000
222.277;    1.825;    5.000;   78.000
222.422;    9.450;  227.000;  113.000
222.566;  -31.500; -381.000; -214.000
222.711;  -54.075; -414.000; -479.000
222.855;  -88.675; -643.000; -586.000
222.999;  -81.250; -642.000; -717.000
223.144;  -23.875; -195.000; -194.000
223.288;   57.475;  423.000;  251.000
223.432;   34.175;  184.000;  230.000
223.576;   15.000;  152.000;  -21.000
223.721;   37.750;  364.000;  273.000
223.865;  -51.850; -472.000; -475.000
224.009;  257.950; 1673.000; 1631.000
224.153;  -80.800; -660.000; -671.000
224.298;  -67.450; -531.000; -489.000
224.442;  -20.350;  -74.000;  -33.000
224.586;   -6.700; -169.000; -106.000
224.730; -108.100; -858.000; -670.000
224.875; -105.675; -739.000; -688.000
225.019;   14.000;  102.000;  188.000
225.163;   41.750;  208.000;  341.000
225.307;   15.625;   97.000;  -91.000
225.451;   46.950;  360.000;  481.000
225.595;   27.950;  264.000;  176.000
225.739;  -11.525; -170.000;  -94.000
225.884;   -2.325;   86.000;    5.000
226.028;  -94.675; -760.000; -626.000
226.172;  -41.875; -260.000; -273.000
226.316; -126.750; -941.000; -902.000
226.460;  -59.025; -645.000; -493.000
226.604;  -62.625; -406.000; -400.000
226.748;  -90.750; -836.000; -733.000
226.892;  -38.475; -227.000; -181.000
227.036;  -40.950; -537.000; -447.000
227.180;  -58.450; -551.000; -375.000
227.324;  -77.575; -561.000; -580.000
227.468;  -97.950; -819.000; -717.000
227.612;    8.775;  242.000;  -28.000
227.756;  -99.300; -845.000; -698.000
227.900;   44.975;  342.000;  441.000
228.044;  -55.775; -509.000; -290.000
228.188;   61.625;  448.000;  568.000
228.332;  -77.750; -546.000; -472.000
228.476;  -23.925; -223.000; -149.000
228.620;  -25.050; -210.000; -150.000
228.764;   64.325;  431.000;  349.000
228.908;  -23.900; -155.000;   30.000
229.052;  -71.150; -615.000; -528.000
229.195;  -13.275; -172.000;   13.000
229.339;  -36.825; -235.000; -305.000
229.483;  -14.675;    5.000; -162.000
229.627;   -1.075; -156.000;  139.000
229.771;  -39.650; -218.000; -294.000
229.915;   14.175;  230.000;   79.000
230.059;  -96.100; -648.000; -663.000
230.202;  -44.800; -370.000; -317.000
230.346;  -11.300; -107.000;  107.000
230.490;  -63.175; -489.000; -521.000
230.634; -100.350; -736.000; -553.000
230.777;   87.400;  478.000;  509.000
230.921;  -57.975; -450.000; -359.000
231.065;  -38.900; -246.000; -286.000
231.209;   25.850;  261.000;  265.000
231.352;   22.500;   54.000;   40.000
231.496;   28.575;  568.000;  188.000
231.640;  -81.175; -693.000; -621.000
231.783;   51.725;  546.000;  525.000
231.927;  -42.400; -294.000; -365.000
232.071; -128.925; -962.000; -736.000
232.214; -116.625; -980.000; -764.000
232.358;  -97.300; -683.000; -599.000
232.502;    1.700;  -19.000;    7.000
232.645; -132.925;-1090.000; -927.000
232.789;  -16.075; -257.000; -218.000
232.933;  -37.325; -407.000; -224.000
233.076; -132.225;-1038.000; -897.000
233.220; -114.925; -752.000; -777.000
233.363;  -69.625; -669.000; -477.000
233.507;   63.625;  371.000;  129.000
233.650; -104.700; -764.000; -834.000
233.794;   54.750;  438.000;  461.000
233.938;  -66.075; -530.000; -362.000
234.081;  -24.400;  -93.000;   31.000
234.225;  -76.625; -631.000; -539.000
234.368; -125.550; -773.000; -723.000
234.512;  -36.300; -385.000; -299.000
234.655;  -92.175; -582.000; -555.000
234.798;  -64.150; -493.000; -466.000
234.942; -138.175; -884.000;-1002.000
235.085;  -79.100; -651.000; -443.000
235.229;  -69.100; -405.000; -410.000
235.372;  -43.175; -247.000; -191.000
235.516;  -56.850; -397.000; -321.000
235.659;   13.350;   92.000;  121.000
235.802;  -19.250;  -38.000;  -22.000
235.946;   27.650;  335.000;  215.000
236.089;   14.725;  126.000;  250.000
236.233;   39.175;  275.000;  298.000
236.376;  -41.000; -235.000; -378.000
236.519;  -49.475; -297.000; -319.000
236.663;  -16.600; -215.000; -117.000
236.806; -139.100;-1029.000; -999.000
236.949;   70.975;  543.000;  431.000
237.092;   55.425;  412.000;  391.000
237.236;  -92.100; -589.000; -502.000
237.379;   65.600;  352.000;  428.000
237.522; -116.975; -879.000; -768.000
237.666;  -29.575; -271.000;   18.000
237.809; -121.350; -851.000; -823.000
237.952;   29.175;  469.000;  271.000
238.095;  -71.875; -447.000; -442.000
238.238;   72.750;  688.000;  700.000
238.382;   -8.250;  166.000;  103.000
238.525;  -75.275; -598.000; -511.000
238.668; -145.800;-1060.000; -985.000
238.811;  -94.525; -638.000; -643.000
238.954;  -69.825; -483.000; -334.000
239.097;   93.025;  617.000;  664.000
239.241;   35.475;  394.000;  326.000
239.384;  -34.900; -254.000; -214.000
239.527;  -59.150; -424.000; -224.000
239.670; -145.575; -994.000;-1091.000
239.813; -103.825; -696.000; -658.000
239.956;   71.325;  579.000;  473.000
240.099; -102.950; -778.000; -725.000
240.242;   53.200;  428.000;  432.000
240.385;   50.700;  466.000;  450.000
240.528;  -84.500; -706.000; -473.000
240.671;   11.050;  189.000;  134.000
240.814;  -35.000; -441.000; -158.000
240.957;  -91.250; -767.000; -578.000
241.100; -103.625; -779.000; -755.000
241.243; -145.500;-1234.000; -893.000
241.386;  -70.025; -508.000; -379.000
241.529;  -93.075; -735.000; -547.000
241.672;  -68.725; -566.000; -495.000
241.815; -125.050; -832.000; -808.000
241.958;  -22.800; -125.000; -182.000
242.101;  -84.450; -545.000; -390.000
242.244;  -50.000; -270.000; -325.000
242.387;  -50.600; -304.000; -246.000
242.530;   63.100;  470.000;  134.000
242.673;  -55.475; -381.000; -309.000
242.815; -125.025; -925.000; -899.000
242.958;  -84.025; -482.000; -381.000
243.101;   10.250;  132.000;  187.000
243.244;  -80.875; -564.000; -521.000
243.387;  -57.600; -313.000; -316.000
243.530; -104.875; -657.000; -674.000
243.672;   -4.925;   43.000;  -92.000
243.815;  -43.900; -355.000; -283.000
243.958;   -4.075;   98.000;  -26.000
244.101;   -2.150;   59.000;  -16.000
244.243;  -15.000;  -47.000;  101.000
244.386; -111.850; -761.000; -630.000
244.529;  -23.700; -132.000; -139.000
244.672; -149.650;-1154.000; -951.000
244.814; -104.550; -621.000; -794.000
244.957;  -43.675; -380.000; -304.000
245.100;  -83.200; -489.000; -489.000
245.242;  -53.975; -387.000; -374.000
245.385;   -8.325;  -59.000;  -39.000
245.528; -115.800; -871.000; -705.000
245.670;   82.575;  612.000;  634.000
245.813;  -74.525; -599.000; -547.000
245.956;  -30.100; -324.000; -275.000
246.098;  -81.075; -508.000; -650.000
246.241;    8.400;  194.000;   48.000
246.383;  -11.450; -119.000;  -73.000
246.526;  -84.600; -454.000; -525.000
246.669; -116.575; -889.000; -780.000
246.811;    5.575;  172.000;   -1.000
246.954;  -69.450; -512.000; -426.000
247.096;  -27.925;  -84.000;   -6.000
247.239;  -58.875; -482.000; -445.000
247.381;  -76.275; -647.000; -488.000
247.524;   81.475;  645.000;  679.000
247.666;  -19.775;   58.000;   11.000
247.809; -109.250; -887.000; -691.000
247.951;   -8.625;  -75.000;  138.000
248.094;   31.725;  432.000;  308.000
248.236; -158.225;-1262.000;-1238.000
248.378;   -4.175; -356.000;  -81.000
248.521;  -27.925; -334.000; -337.000
248.663;  -32.600; -236.000; -267.000
248.806;   -7.225; -300.000; -266.000
248.948;  -93.650; -886.000; -763.000
249.090;  -45.625; -428.000; -398.000
249.233;  -52.600; -344.000; -381.000
249.375;  -51.500; -474.000; -451.000
249.518;  -18.450;  -83.000; -133.000
249.660;   -8.150; -103.000;    3.000
249.802; -179.925;-1303.000;-1189.000
249.945;  -70.850; -612.000; -540.000
250.087; -103.300; -834.000; -768.000
250.229;  -46.475; -362.000; -480.000
250.371;  -74.800; -494.000; -439.000
250.514;  -53.250; -310.000; -244.000
250.656;  -56.050;   69.000;  102.000
250.798; -124.425; -849.000; -800.000
250.940;  -64.675; -322.000; -322.000
251.083;  -31.825; -335.000; -111.000
251.225;   46.850;  338.000;  310.000
251.367;  -48.950; -274.000; -373.000
251.509;  -35.800; -265.000; -210.000
251.651;  -96.225; -731.000; -671.000
251.794;   56.575;  538.000;  632.000
251.936; -108.325; -821.000; -747.000
252.078;  -65.525; -540.000; -461.000
252.220;  -78.300; -645.000; -477.000
252.362;   88.625;  344.000;  462.000
252.504;  -68.725; -677.000; -584.000
252.646; -109.925; -875.000; -722.000
252.788;  -12.275;   14.000; -128.000
252.931;  -38.725; -257.000; -253.000
253.073;  -53.825; -376.000; -317.000
253.215;    4.000;  141.000;  122.000
253.357;  -20.075;   82.000; -153.000
253.499;  -38.700; -374.000; -234.000
253.641;  -81.975; -749.000; -594.000
253.783;  -88.275; -609.000; -527.000
253.925;  -81.900; -586.000; -591.000
254.067; -105.875; -744.000; -667.000
254.209;  -23.900; -391.000; -259.000
254.351; -144.375; -865.000; -883.000
254.493;  -54.250; -441.000; -417.000
254.635; -133.525; -936.000; -818.000
254.777;  -87.650; -752.000; -687.000
254.918;  -65.175; -512.000; -430.000
255.060;  -74.800; -551.000; -395.000
255.202;  -46.550; -473.000; -261.000
255.344;  -84.650; -658.000; -455.000
255.486;  -77.100; -471.000; -406.000
255.628; -116.375; -780.000; -781.000
255.770;  -95.975; -676.000; -536.000
255.912;  -72.475; -559.000; -468.000
256.053;  -97.900; -730.000; -508.000
256.195;  135.625; 1008.000;  903.000
256.337; -111.275; -861.000; -595.000
256.479;   55.025;  532.000;  416.000
256.621;  -40.975; -394.000; -212.000
256.762;  -89.250; -789.000; -742.000
256.904;   57.800;  485.000;  487.000
257.046;  -44.675; -381.000; -271.000
257.188;  -55.300; -351.000; -264.000
257.329;  -79.800; -525.000; -464.000
257.471; -100.675; -939.000; -807.000
257.613;  -68.950; -584.000; -498.000
257.755; -141.275;-1073.000; -982.000
257.896;   20.650;  286.000;  392.000
258.038;  -65.875; -403.000; -352.000
258.180;  -49.200; -354.000; -279.000
258.321;  -85.400; -581.000; -457.000
258.463;   -4.950;  -71.000;  133.000
258.605;  -81.200; -562.000; -570.000
258.746;  -96.150; -886.000; -772.000
258.888; -137.725;-1026.000;-1020.000
259.029;   13.700;  121.000;   -8.000
259.171;  -92.275; -614.000; -550.000
259.313;   -6.275;  -49.000;  -47.000
259.454;  -78.250; -536.000; -414.000
259.596;  -59.650; -483.000; -390.000
259.737;  -79.050; -590.000; -474.000
259.879;   20.900;  217.000;  311.000
260.020;   85.675;  901.000;  636.000
260.162;  -35.625; -146.000; -253.000
260.303; -116.950; -768.000; -687.000
260.445;  -80.175; -609.000; -613.000
260.586;   19.300;  392.000;  157.000
260.728;  -49.925; -360.000; -248.000
260.869; -129.875; -350.000; -343.000
261.011;   69.000;  706.000;  537.000
261.152;  -73.525; -479.000; -319.000
261.293;  -79.050; -576.000; -595.000
261.435;  -35.650; -219.000; -184.000
261.576;  -48.800; -455.000; -325.000
261.718;   45.300;  420.000;  470.000
261.859; -122.475; -940.000; -949.000
262.000; -136.775; -951.000;-1016.000
262.142;  -25.625;  -52.000;  -60.000
262.283; -120.775; -808.000; -691.000
262.424;  -97.475; -666.000; -625.000
262.566; -145.750;-1161.000; -983.000
262.707; -120.250; -840.000; -830.000
262.848; -114.575; -769.000; -726.000
262.990;  -48.225; -362.000; -345.000
263.131;   76.575;  650.000;  681.000
263.272;  -12.500;  -61.000;  -41.000
263.413;  -89.600; -589.000; -561.000
263.555;  -64.975; -669.000; -143.000
263.696;  -82.675; -550.000; -641.000
263.837;  -71.550; -449.000; -551.000
263.978;  -14.300;   -5.000;  -77.000
264.119;  -51.775; -283.000; -264.000
264.261; -118.150; -847.000; -630.000
264.402;   -8.200;   33.000;   40.000
264.543;  -69.900; -509.000; -524.000
264.684;  -10.950;   61.000;  -50.000
264.825;  -73.600; -816.000; -538.000
264.966;   -7.300;  -84.000;  -67.000
265.107; -116.625; -646.000; -670.000
265.248; -107.700; -825.000; -812.000
265.390;   -5.200;  152.000;   -9.000
265.531;  -24.975; -238.000; -107.000
265.672;  -80.125; -557.000; -630.000
265.813;   61.500;  563.000;  439.000
265.954; -148.600; -959.000; -940.000
266.095;  -18.900; -372.000; -322.000
266.236;  -95.425; -686.000; -548.000
266.377;  -36.950; -243.000; -297.000
266.518;  -66.275; -619.000; -547.000
266.659;   22.725;  170.000;  268.000
266.800;   12.325;   83.000;   85.000
266.941;  -80.375; -487.000; -478.000
267.082;    5.075;  354.000;   99.000
267.223;  -53.975; -344.000; -273.000
267.364; -114.350; -892.000; -686.000
267.504;  -19.225;    3.000;  135.000
267.645;    2.625;  160.000;   67.000
267.786;  -38.375; -147.000;  -86.000
267.927;  -73.550; -473.000; -379.000
268.068;  -25.625; -186.000;  -61.000
268.209;  -51.975; -175.000; -413.000
268.350;  -69.425; -388.000; -532.000
268.490;  -77.700; -648.000; -521.000
268.631;   25.925;  127.000;  225.000
268.772; -111.125; -874.000; -647.000
268.913;  -62.075; -328.000; -476.000
269.054;   -6.675; -117.000;   12.000
269.194;  -46.800; -418.000; -402.000
269.335; -153.925;-1137.000;-1074.000
269.476;  -24.825;   33.000;  -35.000
269.617;  -39.025; -347.000; -392.000
269.757;  -88.625; -713.000; -646.000
269.898;  -94.625; -856.000; -613.000
270.039;  -69.675; -415.000; -405.000
270.180; -138.150; -952.000; -816.000
270.320;  -45.725; -190.000; -250.000
